File: data/XRD/BRUCITE.PRN
   5.000       198
   5.500       176
   6.000       139
   6.500       134
   7.000       114
   7.500       121
   8.000       129
   8.500       106
   9.000        84
   9.500        90
  10.000        98
  10.500        79
  11.000        88
  11.500        62
  12.000        86
  12.500        59
  13.000        62
  13.500        65
  14.000        77
  14.500        72
  15.000        75
  15.500        82
  16.000        65
  16.500        67
  17.000        82
  17.500       104
  18.000       466
  18.500     36557
  19.000       515
  19.500       121
  20.000        77
  20.500        70
  21.000        46
  21.500        50
  22.000        38
  22.500        39
  23.000        49
  23.500        47
  24.000        38
  24.500        49
  25.000        42
  25.500        50
  26.000        47
  26.500        32
  27.000        40
  27.500        70
  28.000        38
  28.500        47
  29.000        39
  29.500        38
  30.000        40
  30.500        46
  31.000        39
  31.500        53
  32.000        43
  32.500        57
  33.000        67
  33.500        43
  34.000        53
  34.500        43
  35.000        59
  35.500        57
  36.000        64
  36.500        70
  37.000        88
  37.500       302
  38.000     14065
  38.500       196
  39.000        90
  39.500        77
  40.000        53
  40.500        50
  41.000        64
  41.500        47
  42.000        56
  42.500        67
  43.000        57
  43.500        50
  44.000        51
  44.500        39
  45.000        65
  45.500        51
  46.000        62
  46.500        50
  47.000        51
  47.500        68
  48.000        53
  48.500        81
  49.000        79
  49.500        86
  50.000       132
  50.500       772
  51.000      3648
  51.500       121
  52.000        98
  52.500        79
  53.000        67
  53.500        57
  54.000        64
  54.500        56
  55.000        54
  55.500        49
  56.000        65
  56.500        59
  57.000        44
  57.500        65
  58.000       190
  58.500      1346
  59.000       114
  59.500        65
  60.000        56
  60.500        53
  61.000        62
  61.500        75
  62.000      1190
  62.500        82
  63.000        50
  63.500        50
  64.000        53
  64.500        59
  65.000        62
  65.500        47
  66.000        62
  66.500        68
  67.000        62
  67.500       102
  68.000       806
  68.500      1062
  69.000        96
  69.500        54
  70.000        56
  70.500        53
  71.000        64
  71.500        59
  72.000       841
  72.500        62
  73.000        57
  73.500        43
  74.000        38
  74.500        38
  75.000        47
  75.500        43
  76.000        56
  76.500        34
  77.000        34
  77.500        47
  78.000        50
  78.500        59
  79.000        43
  79.500        56
  80.000        72
  80.500       457
  81.000       295
  81.500       364
  82.000        53
  82.500        49
  83.000        51
  83.500        38
  84.000        32
  84.500        36
  85.000        42
  85.500        37
  86.000        43
  86.500        37
  87.000        98
  87.500        56
  88.000        42
  88.500        43
  89.000        54
  89.500       234
  90.000       213
  90.500        47
  91.000        49
  91.500        42
  92.000        43
  92.500        40
  93.000        43
  93.500        25
  94.000        39
  94.500        43
  95.000        34
  95.500        43
  96.000       207
  96.500       306
  97.000        79
  97.500        53
  98.000        56
  98.500        24
  99.000        56
  99.500       136
 100.000       237
 100.500        72
 101.000        53
 101.500        51
 102.000        50
 102.500        43
 103.000        46
 103.500        47
 104.000        40
 104.500        38
 105.000        47
 105.500        44
 106.000        40
 106.500        51
 107.000        70
 107.500       171
 108.000       313
 108.500       392
 109.000       542
 109.500       320
 110.000        72
 110.500        46
 111.000        46
 111.500        42
 112.000        47
 112.500        38
 113.000        47
 113.500        40
 114.000        53
 114.500        38
 115.000        47
 115.500        56
 116.000       246
 116.500       125
 117.000        56
 117.500       144
 118.000       156
 118.500       123
 119.000        94
 119.500       129
 120.000        72
 120.500        56
 121.000        42
 121.500        44
 122.000        49
 122.500        38
 123.000        47
 123.500        49
 124.000        56
 124.500        57
 125.000        56
 125.500       102
 126.000       416
 126.500       249
 127.000        92
 127.500        53
 128.000        43
 128.500        39
 129.000        33
 129.500        50
 130.000        46
 130.500        42
 131.000        40
 131.500        47
 132.000        32
 132.500        51
 133.000        43
 133.500        39
 134.000        50
 134.500        50
 135.000        44
 135.500        50
 136.000        59
 136.500        50
 137.000        53
 137.500        43
 138.000        49
 138.500        43
 139.000        53
 139.500        49
 140.000        62
 140.500        72
 141.000       129
 141.500       420
 142.000       292
 142.500       237
 143.000       106
 143.500        70
 144.000        64
 144.500        46
 145.000        56
 145.500        49
 146.000        47
 146.500        50
 147.000        49
 147.500        44
 148.000        51
 148.500        54
 149.000        38
 149.500        56
 150.000        44