File: data/XRD/CPD-1B.PRN
   5.000       184
   5.500       156
   6.000       123
   6.500       129
   7.000        96
   7.500        90
   8.000        90
   8.500        92
   9.000        88
   9.500        70
  10.000        72
  10.500        72
  11.000        56
  11.500        67
  12.000        59
  12.500        62
  13.000        47
  13.500        49
  14.000        50
  14.500        53
  15.000        43
  15.500        50
  16.000        42
  16.500        34
  17.000        31
  17.500        27
  18.000        43
  18.500        34
  19.000        32
  19.500        28
  20.000        40
  20.500        37
  21.000        30
  21.500        32
  22.000        31
  22.500        29
  23.000        38
  23.500        31
  24.000        27
  24.500        46
  25.000        54
  25.500      3025
  26.000        47
  26.500        44
  27.000        46
  27.500        38
  28.000        84
  28.500        62
  29.000        24
  29.500        29
  30.000        20
  30.500        17
  31.000        23
  31.500        50
  32.000        33
  32.500        20
  33.000        34
  33.500        34
  34.000        40
  34.500       163
  35.000      1722
  35.500       123
  36.000        65
  36.500        60
  37.000        37
  37.500       158
  38.000       125
  38.500        29
  39.000        38
  39.500        22
  40.000        31
  40.500        16
  41.000        26
  41.500        42
  42.000        36
  42.500        56
  43.000       219
  43.500      1482
  44.000        50
  44.500        36
  45.000        27
  45.500        33
  46.000        54
  46.500        46
  47.000       942
  47.500       134
  48.000        27
  48.500        10
  49.000        30
  49.500        16
  50.000        29
  50.500        25
  51.000        38
  51.500        32
  52.000        38
  52.500      2510
  53.000        56
  53.500        44
  54.000        31
  54.500        25
  55.000        24
  55.500        51
  56.000        60
  56.500       104
  57.000       123
  57.500      4844
  58.000        81
  58.500        39
  59.000        33
  59.500        50
  60.000        38
  60.500        29
  61.000       125
  61.500       182
  62.000        32
  62.500        28
  63.000        77
  63.500        23
  64.000        21
  64.500        25
  65.000        32
  65.500        32
  66.000        49
  66.500      1918
  67.000        56
  67.500        50
  68.000       529
  68.500       342
  69.000        86
  69.500        38
  70.000        23
  70.500        64
  71.000        25
  71.500        33
  72.000        25
  72.500        28
  73.000        16
  73.500        24
  74.000        37
  74.500        65
  75.000        16
  75.500        23
  76.000        72
  76.500        75
  77.000       497
  77.500       161
  78.000        32
  78.500        26
  79.000        22
  79.500        30
  80.000        29
  80.500        92
  81.000        94
  81.500        20
  82.000        30
  82.500        13
  83.000        33
  83.500        31
  84.000        42
  84.500       106
  85.000        24
  85.500        16
  86.000        30
  86.500       204
  87.000        34
  87.500        51
  88.000        29
  88.500        30
  89.000       349
  89.500        65
  90.000        29
  90.500        44
  91.000       184
  91.500       184
  92.000        12
  92.500        23
  93.000        16
  93.500        24
  94.000        36
  94.500        51
  95.000       139
  95.500       400
  96.000        38
  96.500        26
  97.000        25
  97.500        15
  98.000        21
  98.500        50
  99.000        23
  99.500        23
 100.000        28
 100.500        38
 101.000       441
 101.500       187
 102.000        19
 102.500        28
 103.000        38
 103.500        46
 104.000        29
 104.500        32
 105.000        29
 105.500        32
 106.000        38
 106.500        20
 107.000        16
 107.500        20
 108.000        24
 108.500        13
 109.000        20
 109.500        37
 110.000        40
 110.500        29
 111.000       153
 111.500        59
 112.000        24
 112.500        25
 113.000        73
 113.500        43
 114.000       134
 114.500        81
 115.000        29
 115.500        42
 116.000       349
 116.500       368
 117.000       129
 117.500        51
 118.000       112
 118.500        64
 119.000        22
 119.500        24
 120.000        39
 120.500        24
 121.000        21
 121.500        39
 122.000       187
 122.500       118
 123.000        22
 123.500        27
 124.000        31
 124.500        82
 125.000        57
 125.500        36
 126.000        67
 126.500        47
 127.000        43
 127.500       201
 128.000       132
 128.500        86
 129.000        28
 129.500        49
 130.000       153
 130.500       134
 131.000       182
 131.500        82
 132.000        64
 132.500        47
 133.000        36
 133.500        32
 134.000        47
 134.500        28
 135.000        51
 135.500        75
 136.000       686
 136.500       153
 137.000       171
 137.500        36
 138.000        36
 138.500        47
 139.000        34
 139.500        32
 140.000        32
 140.500        30
 141.000        47
 141.500        28
 142.000        54
 142.500        94
 143.000        67
 143.500        42
 144.000        34
 144.500        42
 145.000       156
 145.500       114
 146.000       153
 146.500        62
 147.000        26
 147.500        32
 148.000        42
 148.500        68
 149.000       136
 149.500       144
 150.000       353