File: data/XRD/CPD-1G.PRN
   5.000       174
   5.500       146
   6.000       118
   6.500       118
   7.000       104
   7.500        70
   8.000        86
   8.500        92
   9.000       104
   9.500        56
  10.000        75
  10.500        70
  11.000        72
  11.500        81
  12.000        53
  12.500        47
  13.000        65
  13.500        53
  14.000        53
  14.500        47
  15.000        51
  15.500        53
  16.000        39
  16.500        38
  17.000        54
  17.500        47
  18.000        43
  18.500        34
  19.000        29
  19.500        43
  20.000        32
  20.500        44
  21.000        38
  21.500        33
  22.000        31
  22.500        32
  23.000        27
  23.500        27
  24.000        33
  24.500        30
  25.000        27
  25.500       384
  26.000        38
  26.500        28
  27.000        34
  27.500        37
  28.000       166
  28.500       196
  29.000        38
  29.500        37
  30.000        31
  30.500        37
  31.000        38
  31.500       144
  32.000       225
  32.500        43
  33.000        42
  33.500        53
  34.000        59
  34.500      2256
  35.000       201
  35.500        94
  36.000       278
  36.500       361
  37.000        51
  37.500        53
  38.000        72
  38.500        28
  39.000        39
  39.500        32
  40.000        28
  40.500        33
  41.000        42
  41.500        30
  42.000        27
  42.500        38
  43.000        51
  43.500       615
  44.000        33
  44.500        29
  45.000        29
  45.500        28
  46.000        49
  46.500        64
  47.000      5155
  47.500      1062
  48.000        59
  48.500        32
  49.000        38
  49.500        30
  50.000        33
  50.500        16
  51.000        27
  51.500        32
  52.000        27
  52.500       357
  53.000        46
  53.500        33
  54.000        25
  54.500        42
  55.000        34
  55.500       100
  56.000       302
  56.500       556
  57.000       100
  57.500      1204
  58.000        49
  58.500        53
  59.000        42
  59.500        38
  60.000        46
  60.500        32
  61.000        39
  61.500        77
  62.000        49
  62.500        81
  63.000       912
  63.500        39
  64.000        38
  64.500        33
  65.000        46
  65.500        25
  66.000        53
  66.500       501
  67.000        44
  67.500        47
  68.000      1428
  68.500       256
  69.000       309
  69.500        53
  70.000        36
  70.500        30
  71.000        29
  71.500        37
  72.000        31
  72.500        62
  73.000        34
  73.500        28
  74.000        25
  74.500        38
  75.000        30
  75.500        39
  76.000       161
  76.500        34
  77.000       331
  77.500        70
  78.000        32
  78.500        32
  79.000        32
  79.500        30
  80.000        21
  80.500        36
  81.000        39
  81.500        51
  82.000        17
  82.500        25
  83.000        31
  83.500        30
  84.000        34
  84.500        37
  85.000        28
  85.500        24
  86.000        28
  86.500        64
  87.000        51
  87.500       295
  88.000        56
  88.500        36
  89.000       108
  89.500       104
  90.000       148
  90.500        27
  91.000        38
  91.500        84
  92.000        28
  92.500        28
  93.000        67
  93.500        31
  94.000        51
  94.500       169
  95.000        47
  95.500       182
  96.000        43
  96.500        28
  97.000        25
  97.500        32
  98.000        25
  98.500       106
  99.000       136
  99.500        26
 100.000        29
 100.500        38
 101.000        70
 101.500        72
 102.000        20
 102.500        34
 103.000       201
 103.500        47
 104.000       102
 104.500       201
 105.000        32
 105.500        29
 106.000        77
 106.500        37
 107.000        24
 107.500        84
 108.000        40
 108.500        26
 109.000        30
 109.500        37
 110.000        43
 110.500       144
 111.000        92
 111.500        43
 112.000        17
 112.500        38
 113.000       259
 113.500       196
 114.000        59
 114.500        50
 115.000        29
 115.500        79
 116.000       112
 116.500       174
 117.000        65
 117.500        44
 118.000        60
 118.500        36
 119.000        27
 119.500        24
 120.000        37
 120.500        32
 121.000        30
 121.500       166
 122.000       106
 122.500        53
 123.000        33
 123.500        32
 124.000        36
 124.500        43
 125.000        47
 125.500        43
 126.000       100
 126.500        81
 127.000        56
 127.500        68
 128.000        65
 128.500        46
 129.000        38
 129.500        38
 130.000        82
 130.500        54
 131.000        77
 131.500        36
 132.000        50
 132.500        42
 133.000        40
 133.500        37
 134.000       272
 134.500        84
 135.000        81
 135.500        73
 136.000       198
 136.500       110
 137.000       106
 137.500        43
 138.000        42
 138.500       114
 139.000        40
 139.500        65
 140.000        38
 140.500        34
 141.000        34
 141.500        46
 142.000        33
 142.500        49
 143.000       176
 143.500        57
 144.000        73
 144.500        40
 145.000        56
 145.500        50
 146.000        56
 146.500        43
 147.000        39
 147.500        36
 148.000        43
 148.500        33
 149.000        39
 149.500        67
 150.000        79