File: data/XRD/CPD-3.PRN
   5.000       289
   5.500       302
   6.000       198
   6.500       193
   7.000       193
   7.500       176
   8.000       134
   8.500       136
   9.000       136
   9.500       110
  10.000       112
  10.500       100
  11.000       118
  11.500       116
  12.000       100
  12.500       110
  13.000       121
  13.500        92
  14.000       100
  14.500        98
  15.000        98
  15.500       132
  16.000       112
  16.500       106
  17.000        98
  17.500       108
  18.000       125
  18.500       134
  19.000       182
  19.500       146
  20.000       190
  20.500       222
  21.000       228
  21.500       176
  22.000       246
  22.500       240
  23.000       231
  23.500       207
  24.000       201
  24.500       171
  25.000       166
  25.500       620
  26.000       166
  26.500       136
  27.000       127
  27.500       139
  28.000       262
  28.500       219
  29.000        96
  29.500        94
  30.000        90
  30.500        82
  31.000       104
  31.500       228
  32.000       193
  32.500       104
  33.000        84
  33.500        88
  34.000       112
  34.500      1296
  35.000       345
  35.500        96
  36.000       285
  36.500       285
  37.000        94
  37.500        96
  38.000       108
  38.500        72
  39.000        67
  39.500        56
  40.000        67
  40.500        65
  41.000        56
  41.500        65
  42.000        75
  42.500        68
  43.000       116
  43.500       576
  44.000        65
  44.500        65
  45.000        59
  45.500        54
  46.000        84
  46.500        88
  47.000      3492
  47.500       864
  48.000        82
  48.500        60
  49.000        70
  49.500        62
  50.000        62
  50.500        64
  51.000        56
  51.500        70
  52.000        65
  52.500       501
  53.000        67
  53.500        62
  54.000        65
  54.500        67
  55.000        56
  55.500       108
  56.000       201
  56.500       635
  57.000       118
  57.500      1197
  58.000        72
  58.500        79
  59.000        59
  59.500        64
  60.000        75
  60.500        64
  61.000        86
  61.500        90
  62.000        53
  62.500        94
  63.000       595
  63.500        84
  64.000        59
  64.500        54
  65.000        54
  65.500        53
  66.000        84
  66.500       571
  67.000        82
  67.500        96
  68.000       870
  68.500       249
  69.000       292
  69.500        82
  70.000        50
  70.500        73
  71.000        59
  71.500        50
  72.000        57
  72.500        86
  73.000        56
  73.500        43
  74.000        54
  74.500        72
  75.000        68
  75.500        47
  76.000       187
  76.500        62
  77.000       262
  77.500        77
  78.000        51
  78.500        51
  79.000        43
  79.500        53
  80.000        38
  80.500        65
  81.000        62
  81.500        75
  82.000        62
  82.500        34
  83.000        43
  83.500        50
  84.000        39
  84.500        67
  85.000        36
  85.500        36
  86.000        47
  86.500        59
  87.000        57
  87.500       225
  88.000        47
  88.500        32
  89.000       118
  89.500       136
  90.000        96
  90.500        50
  91.000        67
  91.500        82
  92.000        34
  92.500        43
  93.000        72
  93.500        38
  94.000        67
  94.500       121
  95.000        92
  95.500       201
  96.000        34
  96.500        37
  97.000        38
  97.500        34
  98.000        40
  98.500       104
  99.000       125
  99.500        33
 100.000        32
 100.500        44
 101.000       118
 101.500        77
 102.000        40
 102.500        39
 103.000       116
 103.500        56
 104.000        82
 104.500       144
 105.000        51
 105.500        56
 106.000        64
 106.500        38
 107.000        25
 107.500        53
 108.000        50
 108.500        30
 109.000        34
 109.500        39
 110.000        53
 110.500       108
 111.000        86
 111.500        42
 112.000        38
 112.500        36
 113.000       213
 113.500       121
 114.000        72
 114.500        50
 115.000        42
 115.500        49
 116.000       148
 116.500       161
 117.000        84
 117.500        39
 118.000        67
 118.500        56
 119.000        39
 119.500        37
 120.000        37
 120.500        38
 121.000        38
 121.500       136
 122.000       134
 122.500        56
 123.000        38
 123.500        43
 124.000        33
 124.500        49
 125.000        51
 125.500        47
 126.000       123
 126.500        81
 127.000        64
 127.500        82
 128.000        67
 128.500        51
 129.000        53
 129.500        43
 130.000        72
 130.500        64
 131.000        68
 131.500        53
 132.000        51
 132.500        39
 133.000        38
 133.500        47
 134.000       182
 134.500        96
 135.000        98
 135.500        70
 136.000       198
 136.500       100
 137.000        79
 137.500        50
 138.000        53
 138.500        94
 139.000        43
 139.500        53
 140.000        39
 140.500        47
 141.000        40
 141.500        40
 142.000        53
 142.500        59
 143.000       171
 143.500        56
 144.000        53
 144.500        42
 145.000        75
 145.500        60
 146.000        72
 146.500        42
 147.000        47
 147.500        59
 148.000        47
 148.500        53
 149.000        70
 149.500        67
 150.000       121