File: data/XRD/CPD-Y2O3.PRN
   5.000       484
   5.500       457
   6.000       357
   6.500       357
   7.000       345
   7.500       331
   8.000       285
   8.500       265
   9.000       278
   9.500       262
  10.000       237
  10.500       228
  11.000       201
  11.500       179
  12.000       169
  12.500       161
  13.000       151
  13.500       169
  14.000       156
  14.500       156
  15.000       163
  15.500       153
  16.000       112
  16.500       144
  17.000       121
  17.500       121
  18.000       118
  18.500       125
  19.000        96
  19.500       114
  20.000       144
  20.500      9196
  21.000       141
  21.500        92
  22.000       104
  22.500        81
  23.000       104
  23.500        79
  24.000       100
  24.500       108
  25.000        84
  25.500        86
  26.000        94
  26.500       100
  27.000       100
  27.500        94
  28.000       184
  28.500       353
  29.000      6006
  29.500      1108
  30.000       225
  30.500       148
  31.000       106
  31.500       201
  32.000        98
  32.500        94
  33.000       121
  33.500       384
  34.000      1043
  34.500       121
  35.000       116
  35.500       104
  36.000      2470
  36.500        92
  37.000        84
  37.500        79
  38.000       670
  38.500        75
  39.000        86
  39.500       114
  40.000      1831
  40.500        98
  41.000        65
  41.500       104
  42.000       104
  42.500        79
  43.000       110
  43.500      6707
  44.000       104
  44.500        88
  45.000        86
  45.500        84
  46.000        79
  46.500       141
  47.000      1128
  47.500       144
  48.000       272
  48.500     17609
  49.000       372
  49.500       156
  50.000       219
  50.500       118
  51.000        96
  51.500        84
  52.000        84
  52.500        90
  53.000       216
  53.500       249
  54.000       104
  54.500       110
  55.000       136
  55.500        94
  56.000       210
  56.500       213
  57.000       163
  57.500      1681
  58.000       552
  58.500       158
  59.000      2007
  59.500       156
  60.000       118
  60.500      2809
  61.000       108
  61.500       102
  62.000       823
  62.500        70
  63.000       125
  63.500       121
  64.000        90
  64.500      1324
  65.000       104
  65.500        77
  66.000       368
  66.500        59
  67.000        59
  67.500        72
  68.000        67
  68.500        59
  69.000        57
  69.500       110
  70.000       829
  70.500        96
  71.000       739
  71.500       141
  72.000       139
  72.500       712
  73.000        82
  73.500       210
  74.000       121
  74.500       104
  75.000       372
  75.500        88
  76.000       174
  76.500       123
  77.000       125
  77.500       449
  78.000       106
  78.500       784
  79.000       275
  79.500        90
  80.000       108
  80.500        92
  81.000      1288
  81.500       193
  82.000       100
  82.500       316
  83.000        86
  83.500       772
  84.000        88
  84.500       118
  85.000       812
  85.500        92
  86.000       163
  86.500        88
  87.000       171
  87.500       436
  88.000        84
  88.500        84
  89.000       104
  89.500       645
  90.000       187
  90.500       201
  91.000       870
  91.500       125
  92.000      1584
  92.500       134
  93.000       148
  93.500       590
  94.000        90
  94.500       262
  95.000       116
  95.500       368
  96.000       734
  96.500       114
  97.000       151
  97.500       127
  98.000      1474
  98.500       436
  99.000       161
  99.500       320
 100.000       104
 100.500        72
 101.000        94
 101.500       146
 102.000       299
 102.500       112
 103.000      1747
 103.500       204
 104.000       146
 104.500       285
 105.000       129
 105.500      1513
 106.000       216
 106.500       144
 107.000       213
 107.500        94
 108.000       106
 108.500        82
 109.000       102
 109.500       213
 110.000       125
 110.500       388
 111.000       436
 111.500        92
 112.000        79
 112.500        86
 113.000       166
 113.500       176
 114.000       118
 114.500      1260
 115.000       510
 115.500       112
 116.000       176
 116.500       102
 117.000       153
 117.500       184
 118.000       146
 118.500      1310
 119.000       888
 119.500       129
 120.000       376
 120.500       225
 121.000       123
 121.500       309
 122.000       259
 122.500       176
 123.000       278
 123.500       219
 124.000       184
 124.500       184
 125.000       174
 125.500       196
 126.000       187
 126.500       169
 127.000       259
 127.500       198
 128.000       216
 128.500       153
 129.000       163
 129.500       176
 130.000       112
 130.500       108
 131.000       112
 131.500       141
 132.000       852
 132.500       510
 133.000       136
 133.500       967
 134.000       204
 134.500       171
 135.000       158
 135.500       216
 136.000       441
 136.500       207
 137.000      2401
 137.500       295
 138.000       231
 138.500       204
 139.000       275
 139.500       353
 140.000       161
 140.500       484
 141.000       268
 141.500       900
 142.000       198
 142.500       484
 143.000       213
 143.500       506
 144.000       158
 144.500       275
 145.000       169
 145.500       302
 146.000       134
 146.500       176
 147.000       302
 147.500       179
 148.000       228
 148.500       148
 149.000       561
 149.500       179
 150.000       316