File: data/XRD/CPD-1H.PRN
   5.000       158
   5.500       144
   6.000       134
   6.500       106
   7.000       114
   7.500       110
   8.000       102
   8.500        77
   9.000        77
   9.500        57
  10.000        64
  10.500        53
  11.000        62
  11.500        59
  12.000        64
  12.500        75
  13.000        56
  13.500        53
  14.000        40
  14.500        50
  15.000        32
  15.500        32
  16.000        51
  16.500        40
  17.000        34
  17.500        50
  18.000        38
  18.500        39
  19.000        47
  19.500        38
  20.000        38
  20.500        37
  21.000        34
  21.500        37
  22.000        33
  22.500        40
  23.000        34
  23.500        29
  24.000        32
  24.500        29
  25.000        31
  25.500       324
  26.000        38
  26.500        33
  27.000        44
  27.500        34
  28.000       132
  28.500       240
  29.000        42
  29.500        33
  30.000        28
  30.500        44
  31.000        40
  31.500       132
  32.000       282
  32.500        50
  33.000        51
  33.500        38
  34.000        60
  34.500      2381
  35.000       171
  35.500       104
  36.000       193
  36.500       432
  37.000        56
  37.500        50
  38.000        79
  38.500        23
  39.000        27
  39.500        27
  40.000        25
  40.500        26
  41.000        30
  41.500        27
  42.000        32
  42.500        31
  43.000        47
  43.500       852
  44.000        34
  44.500        32
  45.000        32
  45.500        31
  46.000        44
  46.500        75
  47.000      4542
  47.500       615
  48.000        70
  48.500        33
  49.000        23
  49.500        42
  50.000        38
  50.500        26
  51.000        23
  51.500        37
  52.000        32
  52.500       265
  53.000        46
  53.500        30
  54.000        37
  54.500        39
  55.000        50
  55.500        81
  56.000       420
  56.500       316
  57.000        96
  57.500      1135
  58.000        51
  58.500        57
  59.000        39
  59.500        31
  60.000        57
  60.500        37
  61.000        42
  61.500        82
  62.000        32
  62.500        62
  63.000       707
  63.500        53
  64.000        43
  64.500        30
  65.000        32
  65.500        34
  66.000        40
  66.500       457
  67.000        57
  67.500        54
  68.000      1505
  68.500       309
  69.000       210
  69.500        67
  70.000        37
  70.500        29
  71.000        26
  71.500        25
  72.000        32
  72.500        56
  73.000        32
  73.500        22
  74.000        29
  74.500        42
  75.000        21
  75.500        30
  76.000       187
  76.500        38
  77.000       342
  77.500        79
  78.000        38
  78.500        27
  79.000        22
  79.500        19
  80.000        24
  80.500        28
  81.000        65
  81.500        75
  82.000        22
  82.500        31
  83.000        26
  83.500        30
  84.000        23
  84.500        44
  85.000        26
  85.500        38
  86.000        31
  86.500        77
  87.000        51
  87.500       331
  88.000        51
  88.500        43
  89.000       118
  89.500        96
  90.000       182
  90.500        23
  91.000        34
  91.500        86
  92.000        31
  92.500        38
  93.000        70
  93.500        32
  94.000        62
  94.500       176
  95.000        60
  95.500       171
  96.000        38
  96.500        20
  97.000        27
  97.500        22
  98.000        25
  98.500        73
  99.000       146
  99.500        30
 100.000        32
 100.500        17
 101.000        72
 101.500        86
 102.000        26
 102.500        34
 103.000       176
 103.500        44
 104.000        65
 104.500       134
 105.000        30
 105.500        34
 106.000        82
 106.500        38
 107.000        26
 107.500        67
 108.000        46
 108.500        37
 109.000        32
 109.500        28
 110.000        26
 110.500       141
 111.000        75
 111.500        43
 112.000        25
 112.500        37
 113.000       265
 113.500       179
 114.000        54
 114.500        44
 115.000        26
 115.500        82
 116.000       110
 116.500       176
 117.000        86
 117.500        37
 118.000        72
 118.500        42
 119.000        31
 119.500        27
 120.000        28
 120.500        46
 121.000        38
 121.500       144
 122.000       108
 122.500        50
 123.000        36
 123.500        34
 124.000        32
 124.500        47
 125.000        33
 125.500        46
 126.000       129
 126.500        94
 127.000        84
 127.500        64
 128.000        57
 128.500        59
 129.000        26
 129.500        38
 130.000        67
 130.500        59
 131.000        60
 131.500        33
 132.000        37
 132.500        31
 133.000        33
 133.500        50
 134.000       237
 134.500        82
 135.000        98
 135.500        65
 136.000       184
 136.500        86
 137.000        64
 137.500        50
 138.000        43
 138.500       106
 139.000        43
 139.500        51
 140.000        31
 140.500        37
 141.000        36
 141.500        33
 142.000        51
 142.500        51
 143.000       176
 143.500        46
 144.000        75
 144.500        37
 145.000        67
 145.500        62
 146.000        79
 146.500        46
 147.000        30
 147.500        30
 148.000        42
 148.500        39
 149.000        50
 149.500        60
 150.000        86