File: data/XRD/CPD-1A.PRN
   5.000       153
   5.500       127
   6.000       116
   6.500       106
   7.000       100
   7.500        98
   8.000        92
   8.500       100
   9.000        75
   9.500        72
  10.000        53
  10.500        56
  11.000        62
  11.500        54
  12.000        47
  12.500        50
  13.000        43
  13.500        43
  14.000        50
  14.500        43
  15.000        36
  15.500        39
  16.000        30
  16.500        36
  17.000        32
  17.500        25
  18.000        28
  18.500        30
  19.000        26
  19.500        28
  20.000        16
  20.500        44
  21.000        19
  21.500        28
  22.000        12
  22.500        21
  23.000        26
  23.500        19
  24.000        27
  24.500        13
  25.000        22
  25.500        47
  26.000        21
  26.500        25
  27.000        19
  27.500        33
  28.000       234
  28.500       262
  29.000        32
  29.500        13
  30.000        19
  30.500        19
  31.000        15
  31.500        21
  32.000        38
  32.500        16
  33.000        25
  33.500        16
  34.000        21
  34.500       144
  35.000        24
  35.500        17
  36.000        32
  36.500        43
  37.000        27
  37.500        20
  38.000        13
  38.500        15
  39.000        10
  39.500        15
  40.000         2
  40.500        13
  41.000        15
  41.500        12
  42.000        20
  42.500        12
  43.000        20
  43.500        33
  44.000        16
  44.500        20
  45.000        32
  45.500        32
  46.000        38
  46.500       102
  47.000     10020
  47.500       184
  48.000        37
  48.500        23
  49.000        21
  49.500        25
  50.000        29
  50.500        19
  51.000        12
  51.500        22
  52.000        15
  52.500        25
  53.000        12
  53.500        24
  54.000        13
  54.500        30
  55.000        29
  55.500       136
  56.000       428
  56.500        64
  57.000        29
  57.500        50
  58.000        13
  58.500        40
  59.000        20
  59.500        16
  60.000        16
  60.500        12
  61.000        13
  61.500        10
  62.000        16
  62.500        21
  63.000        73
  63.500        12
  64.000        20
  64.500        12
  65.000        15
  65.500        12
  66.000        12
  66.500        36
  67.000        20
  67.500        13
  68.000       114
  68.500        98
  69.000        90
  69.500        20
  70.000        12
  70.500        17
  71.000        12
  71.500        10
  72.000        16
  72.500        20
  73.000        15
  73.500        22
  74.000        15
  74.500        21
  75.000        21
  75.500        47
  76.000       338
  76.500        17
  77.000        34
  77.500        13
  78.000        16
  78.500        22
  79.000        19
  79.500        17
  80.000        13
  80.500        12
  81.000        12
  81.500        16
  82.000        13
  82.500        26
  83.000        19
  83.500        16
  84.000        16
  84.500        16
  85.000        15
  85.500        16
  86.000        21
  86.500        26
  87.000        65
  87.500       542
  88.000        37
  88.500        29
  89.000        21
  89.500        17
  90.000        24
  90.500        16
  91.000         9
  91.500        12
  92.000        24
  92.500        16
  93.000        24
  93.500        12
  94.000        67
  94.500       265
  95.000        17
  95.500        27
  96.000        10
  96.500        12
  97.000        16
  97.500        13
  98.000        10
  98.500        19
  99.000        27
  99.500        16
 100.000        16
 100.500        10
 101.000        12
 101.500         9
 102.000        13
 102.500        15
 103.000        33
 103.500        12
 104.000        16
 104.500        30
 105.000        15
 105.500        38
 106.000       100
 106.500        19
 107.000        19
 107.500        21
 108.000        10
 108.500        16
 109.000        21
 109.500        10
 110.000        16
 110.500        26
 111.000        23
 111.500        19
 112.000        28
 112.500        32
 113.000       470
 113.500       289
 114.000        22
 114.500        15
 115.000        16
 115.500        65
 116.000        28
 116.500        20
 117.000        22
 117.500        15
 118.000        12
 118.500        12
 119.000        15
 119.500        13
 120.000        10
 120.500        20
 121.000         6
 121.500        16
 122.000        26
 122.500        13
 123.000        12
 123.500        12
 124.000        21
 124.500        16
 125.000        17
 125.500        32
 126.000       174
 126.500       121
 127.000        88
 127.500        28
 128.000        21
 128.500        10
 129.000        23
 129.500        20
 130.000        15
 130.500        23
 131.000        21
 131.500        16
 132.000        16
 132.500        16
 133.000        13
 133.500        21
 134.000        42
 134.500        24
 135.000        70
 135.500        84
 136.000       127
 136.500        23
 137.000        20
 137.500        19
 138.000        21
 138.500        62
 139.000        23
 139.500        31
 140.000        13
 140.500         9
 141.000        13
 141.500        17
 142.000        23
 142.500        30
 143.000        26
 143.500        24
 144.000        20
 144.500        16
 145.000        10
 145.500        17
 146.000        10
 146.500        16
 147.000        16
 147.500        22
 148.000        20
 148.500        12
 149.000        21
 149.500        16
 150.000        21