File: data/XRD/CPD-4.PRN
   5.000       166
   5.500       151
   6.000       134
   6.500       118
   7.000       106
   7.500        96
   8.000       102
   8.500        90
   9.000        92
   9.500       100
  10.000        68
  10.500        75
  11.000        67
  11.500        67
  12.000        64
  12.500        51
  13.000        51
  13.500        50
  14.000        56
  14.500        54
  15.000        53
  15.500        42
  16.000        46
  16.500        33
  17.000        43
  17.500        47
  18.000        47
  18.500        40
  19.000        47
  19.500        57
  20.000      1944
  20.500        46
  21.000        36
  21.500        34
  22.000        36
  22.500        29
  23.000        40
  23.500        29
  24.000        29
  24.500        28
  25.000        39
  25.500       806
  26.000        50
  26.500        75
  27.000      2992
  27.500        84
  28.000        49
  28.500        47
  29.000        43
  29.500        36
  30.000       166
  30.500        31
  31.000        32
  31.500        23
  32.000        38
  32.500        32
  33.000        33
  33.500        34
  34.000        42
  34.500        44
  35.000       380
  35.500      1122
  36.000        59
  36.500        31
  37.000        50
  37.500        56
  38.000        56
  38.500       552
  39.000        37
  39.500        34
  40.000        31
  40.500       106
  41.000        26
  41.500        24
  42.000        20
  42.500        27
  43.000       723
  43.500       789
  44.000        59
  44.500        32
  45.000        25
  45.500        31
  46.000        21
  46.500        28
  47.000        23
  47.500       182
  48.000        29
  48.500        32
  49.000        12
  49.500        21
  50.000        17
  50.500        26
  51.000        29
  51.500        40
  52.000       139
  52.500       767
  53.000        90
  53.500       998
  54.000        67
  54.500        28
  55.000        37
  55.500       327
  56.000        56
  56.500        38
  57.000       222
  57.500      1944
  58.000        47
  58.500        33
  59.000        22
  59.500        40
  60.000        29
  60.500        20
  61.000        38
  61.500        98
  62.000        53
  62.500       302
  63.000       158
  63.500        20
  64.000        23
  64.500        29
  65.000        22
  65.500        21
  66.000        28
  66.500       734
  67.000        42
  67.500        57
  68.000       201
  68.500       163
  69.000        73
  69.500        21
  70.000        27
  70.500        34
  71.000        53
  71.500        12
  72.000        16
  72.500        17
  73.000        33
  73.500       110
  74.000       552
  74.500        30
  75.000        86
  75.500        62
  76.000        56
  76.500        26
  77.000       116
  77.500        88
  78.000        21
  78.500        33
  79.000        32
  79.500        26
  80.000        32
  80.500        77
  81.000       136
  81.500        25
  82.000        27
  82.500        53
  83.000        32
  83.500        32
  84.000        22
  84.500        53
  85.000        32
  85.500        17
  86.000        21
  86.500        67
  87.000        42
  87.500        38
  88.000        98
  88.500        30
  89.000       196
  89.500        75
  90.000        57
  90.500        29
  91.000        50
  91.500       102
  92.000        26
  92.500        59
  93.000        59
  93.500       166
  94.000        67
  94.500        72
  95.000        98
  95.500       141
  96.000        27
  96.500        13
  97.000        15
  97.500        27
  98.000        16
  98.500        40
  99.000        20
  99.500        15
 100.000        24
 100.500        27
 101.000       127
 101.500        75
 102.000        25
 102.500        19
 103.000        23
 103.500        37
 104.000        37
 104.500        28
 105.000        47
 105.500        43
 106.000        24
 106.500        13
 107.000        17
 107.500        24
 108.000        26
 108.500        22
 109.000        16
 109.500        28
 110.000        30
 110.500        22
 111.000        73
 111.500        44
 112.000        26
 112.500        30
 113.000        31
 113.500        50
 114.000        54
 114.500       148
 115.000        50
 115.500        22
 116.000       104
 116.500       136
 117.000        65
 117.500       108
 118.000       104
 118.500        94
 119.000       104
 119.500       327
 120.000       222
 120.500        88
 121.000        70
 121.500        51
 122.000       100
 122.500        64
 123.000        26
 123.500        23
 124.000        29
 124.500        31
 125.000        23
 125.500        20
 126.000        29
 126.500        31
 127.000        32
 127.500        65
 128.000       262
 128.500       134
 129.000        57
 129.500        51
 130.000        79
 130.500        81
 131.000        50
 131.500        31
 132.000        30
 132.500        36
 133.000        32
 133.500        37
 134.000        36
 134.500        37
 135.000       153
 135.500       100
 136.000       262
 136.500        86
 137.000        77
 137.500        49
 138.000        47
 138.500        50
 139.000        37
 139.500        50
 140.000        32
 140.500        32
 141.000        42
 141.500        28
 142.000        25
 142.500        59
 143.000        54
 143.500        65
 144.000        56
 144.500        59
 145.000        65
 145.500        67
 146.000        62
 146.500        43
 147.000        28
 147.500        31
 148.000        29
 148.500        32
 149.000        56
 149.500        86
 150.000       100