File: data/XRD/CPD-1F.PRN
   5.000       187
   5.500       163
   6.000       121
   6.500       134
   7.000       116
   7.500       110
   8.000        88
   8.500        98
   9.000        77
   9.500        96
  10.000        86
  10.500        67
  11.000        64
  11.500        77
  12.000        59
  12.500        53
  13.000        64
  13.500        62
  14.000        53
  14.500        65
  15.000        44
  15.500        50
  16.000        44
  16.500        34
  17.000        43
  17.500        43
  18.000        50
  18.500        47
  19.000        38
  19.500        42
  20.000        46
  20.500        39
  21.000        47
  21.500        43
  22.000        39
  22.500        34
  23.000        38
  23.500        38
  24.000        36
  24.500        33
  25.000        38
  25.500       324
  26.000        38
  26.500        32
  27.000        34
  27.500        37
  28.000       123
  28.500       144
  29.000        42
  29.500        39
  30.000        39
  30.500        53
  31.000        77
  31.500       282
  32.000       436
  32.500        70
  33.000        46
  33.500        70
  34.000       102
  34.500      4186
  35.000       231
  35.500       123
  36.000       510
  36.500       750
  37.000       106
  37.500        56
  38.000        77
  38.500        54
  39.000        38
  39.500        40
  40.000        38
  40.500        39
  41.000        31
  41.500        32
  42.000        40
  42.500        43
  43.000        62
  43.500       615
  44.000        34
  44.500        43
  45.000        42
  45.500        47
  46.000        50
  46.500        70
  47.000      3102
  47.500      1689
  48.000        73
  48.500        50
  49.000        54
  49.500        32
  50.000        46
  50.500        30
  51.000        34
  51.500        31
  52.000        32
  52.500       349
  53.000        39
  53.500        38
  54.000        39
  54.500        51
  55.000        49
  55.500        88
  56.000       252
  56.500       918
  57.000       163
  57.500      1115
  58.000        65
  58.500        49
  59.000        42
  59.500        54
  60.000        51
  60.500        49
  61.000        59
  61.500        96
  62.000        53
  62.500       153
  63.000      1584
  63.500        67
  64.000        53
  64.500        51
  65.000        49
  65.500        42
  66.000        65
  66.500       605
  67.000        86
  67.500        88
  68.000      2683
  68.500       237
  69.000       441
  69.500       100
  70.000        46
  70.500        56
  71.000        44
  71.500        38
  72.000        46
  72.500       106
  73.000        43
  73.500        47
  74.000        42
  74.500        50
  75.000        28
  75.500        36
  76.000       139
  76.500        51
  77.000       524
  77.500        84
  78.000        40
  78.500        43
  79.000        27
  79.500        30
  80.000        38
  80.500        42
  81.000        46
  81.500       118
  82.000        38
  82.500        34
  83.000        34
  83.500        36
  84.000        31
  84.500        47
  85.000        36
  85.500        38
  86.000        29
  86.500        72
  87.000        38
  87.500       219
  88.000        59
  88.500        29
  89.000       118
  89.500       216
  90.000       256
  90.500        39
  91.000        59
  91.500        79
  92.000        43
  92.500        50
  93.000        98
  93.500        33
  94.000        60
  94.500       136
  95.000        96
  95.500       265
  96.000        57
  96.500        40
  97.000        36
  97.500        39
  98.000        38
  98.500       121
  99.000       234
  99.500        43
 100.000        27
 100.500        38
 101.000        90
 101.500        75
 102.000        39
 102.500        59
 103.000       364
 103.500        64
 104.000       139
 104.500       320
 105.000        47
 105.500        59
 106.000        70
 106.500        54
 107.000        38
 107.500       127
 108.000        57
 108.500        39
 109.000        42
 109.500        40
 110.000        56
 110.500       262
 111.000       102
 111.500        50
 112.000        50
 112.500        42
 113.000       179
 113.500       134
 114.000        53
 114.500        57
 115.000        50
 115.500        65
 116.000       144
 116.500       289
 117.000       110
 117.500        50
 118.000        56
 118.500        51
 119.000        43
 119.500        46
 120.000        38
 120.500        51
 121.000        53
 121.500       275
 122.000       184
 122.500        72
 123.000        50
 123.500        39
 124.000        38
 124.500        51
 125.000        57
 125.500        50
 126.000       112
 126.500        67
 127.000        65
 127.500        60
 128.000        57
 128.500        62
 129.000        47
 129.500        47
 130.000        70
 130.500        60
 131.000        56
 131.500        50
 132.000        43
 132.500        50
 133.000        40
 133.500        56
 134.000       449
 134.500       112
 135.000        92
 135.500        56
 136.000       176
 136.500       141
 137.000        86
 137.500        57
 138.000        46
 138.500       163
 139.000        53
 139.500        75
 140.000        31
 140.500        51
 141.000        43
 141.500        49
 142.000        49
 142.500        77
 143.000       368
 143.500        70
 144.000       108
 144.500        56
 145.000        79
 145.500        62
 146.000        59
 146.500        36
 147.000        37
 147.500        39
 148.000        40
 148.500        47
 149.000        62
 149.500        67
 150.000        92