File: data/XRD/CPD-1C.PRN
   5.000       169
   5.500       184
   6.000       125
   6.500       146
   7.000       129
   7.500       125
   8.000        81
   8.500        86
   9.000       102
   9.500        72
  10.000        90
  10.500        79
  11.000        75
  11.500        62
  12.000        72
  12.500        68
  13.000        92
  13.500        59
  14.000        59
  14.500        56
  15.000        59
  15.500        62
  16.000        67
  16.500        47
  17.000        62
  17.500        43
  18.000        59
  18.500        59
  19.000        40
  19.500        50
  20.000        47
  20.500        70
  21.000        36
  21.500        54
  22.000        50
  22.500        34
  23.000        46
  23.500        40
  24.000        53
  24.500        37
  25.000        42
  25.500       127
  26.000        39
  26.500        47
  27.000        56
  27.500        43
  28.000        53
  28.500        54
  29.000        40
  29.500        67
  30.000        57
  30.500        62
  31.000       123
  31.500       542
  32.000       734
  32.500       106
  33.000       112
  33.500        90
  34.000       161
  34.500      6674
  35.000       187
  35.500       182
  36.000       918
  36.500      1115
  37.000       141
  37.500        79
  38.000        82
  38.500        62
  39.000        65
  39.500        49
  40.000        53
  40.500        56
  41.000        39
  41.500        56
  42.000        43
  42.500        49
  43.000        50
  43.500       148
  44.000        40
  44.500        44
  45.000        32
  45.500        59
  46.000        53
  46.500        57
  47.000       342
  47.500      3576
  48.000       118
  48.500        53
  49.000        54
  49.500        56
  50.000        56
  50.500        43
  51.000        60
  51.500        59
  52.000        47
  52.500       129
  53.000        62
  53.500        54
  54.000        47
  54.500        53
  55.000        75
  55.500        77
  56.000       121
  56.500      2106
  57.000       231
  57.500       299
  58.000        64
  58.500        53
  59.000        60
  59.500        59
  60.000        62
  60.500        56
  61.000        59
  61.500        75
  62.000       112
  62.500       231
  63.000      2937
  63.500        98
  64.000        86
  64.500        75
  65.000        53
  65.500        67
  66.000        90
  66.500       556
  67.000        96
  67.500       148
  68.000      4316
  68.500       198
  69.000       882
  69.500       141
  70.000        72
  70.500        65
  71.000        56
  71.500        56
  72.000        47
  72.500       210
  73.000        67
  73.500        49
  74.000        53
  74.500        43
  75.000        42
  75.500        42
  76.000        44
  76.500        53
  77.000       823
  77.500        65
  78.000        51
  78.500        47
  79.000        38
  79.500        42
  80.000        49
  80.500        37
  81.000        65
  81.500       201
  82.000        50
  82.500        42
  83.000        46
  83.500        38
  84.000        47
  84.500        43
  85.000        40
  85.500        44
  86.000        39
  86.500        59
  87.000        50
  87.500        64
  88.000        62
  88.500        53
  89.000        72
  89.500       436
  90.000       372
  90.500        50
  91.000        62
  91.500        54
  92.000        68
  92.500        68
  93.000       176
  93.500        59
  94.000        56
  94.500        57
  95.000       132
  95.500       412
  96.000        88
  96.500        57
  97.000        62
  97.500        50
  98.000        59
  98.500       234
  99.000       441
  99.500        57
 100.000        50
 100.500        53
 101.000        56
 101.500        57
 102.000        53
 102.500        65
 103.000       571
 103.500       125
 104.000       265
 104.500       566
 105.000        64
 105.500        53
 106.000        56
 106.500        50
 107.000        56
 107.500       216
 108.000        54
 108.500        59
 109.000        56
 109.500        62
 110.000        88
 110.500       392
 111.000       134
 111.500        62
 112.000        50
 112.500        60
 113.000        77
 113.500        67
 114.000        64
 114.500        53
 115.000        62
 115.500        90
 116.000       187
 116.500       368
 117.000       134
 117.500        54
 118.000        62
 118.500        56
 119.000        56
 119.500        57
 120.000        51
 120.500        47
 121.000        67
 121.500       566
 122.000       327
 122.500        70
 123.000        67
 123.500        40
 124.000        53
 124.500        53
 125.000        90
 125.500        67
 126.000        70
 126.500        47
 127.000        56
 127.500        57
 128.000        64
 128.500        54
 129.000        40
 129.500        54
 130.000        59
 130.500        44
 131.000        59
 131.500        59
 132.000        56
 132.500        59
 133.000        70
 133.500        84
 134.000       823
 134.500       228
 135.000       102
 135.500        72
 136.000        86
 136.500       196
 137.000        82
 137.500        82
 138.000        65
 138.500       292
 139.000        94
 139.500       121
 140.000        47
 140.500        59
 141.000        65
 141.500        67
 142.000        72
 142.500       100
 143.000       660
 143.500       110
 144.000       198
 144.500        75
 145.000        64
 145.500        72
 146.000        79
 146.500        79
 147.000        62
 147.500        49
 148.000        62
 148.500        53
 149.000        67
 149.500        67
 150.000        79