File: data/XRD/FLUORITE.PRN
   5.000       151
   5.500       132
   6.000       112
   6.500       100
   7.000        88
   7.500        86
   8.000        81
   8.500        84
   9.000        73
   9.500        75
  10.000        64
  10.500        62
  11.000        62
  11.500        50
  12.000        40
  12.500        47
  13.000        32
  13.500        50
  14.000        56
  14.500        36
  15.000        37
  15.500        23
  16.000        40
  16.500        38
  17.000        26
  17.500        31
  18.000        32
  18.500        20
  19.000        25
  19.500        32
  20.000        23
  20.500        21
  21.000        20
  21.500        19
  22.000        22
  22.500        26
  23.000        26
  23.500        22
  24.000        16
  24.500        22
  25.000        16
  25.500        38
  26.000        16
  26.500        25
  27.000        30
  27.500        29
  28.000       246
  28.500       275
  29.000        32
  29.500        27
  30.000        17
  30.500        21
  31.000        12
  31.500        16
  32.000        19
  32.500        16
  33.000        24
  33.500        20
  34.000        25
  34.500        13
  35.000        16
  35.500        26
  36.000        16
  36.500        10
  37.000        15
  37.500        19
  38.000        27
  38.500        15
  39.000        12
  39.500        12
  40.000        21
  40.500        16
  41.000        13
  41.500        17
  42.000        16
  42.500        20
  43.000        10
  43.500        22
  44.000        12
  44.500        21
  45.000        27
  45.500        30
  46.000        37
  46.500        90
  47.000     10120
  47.500        84
  48.000        38
  48.500        30
  49.000        19
  49.500        20
  50.000        21
  50.500        12
  51.000        22
  51.500        17
  52.000        19
  52.500        23
  53.000        16
  53.500        17
  54.000        20
  54.500        20
  55.000        30
  55.500       104
  56.000       462
  56.500        19
  57.000        26
  57.500        10
  58.000        25
  58.500        36
  59.000        17
  59.500        10
  60.000        13
  60.500        10
  61.000        12
  61.500        15
  62.000         1
  62.500        12
  63.000         9
  63.500        13
  64.000        12
  64.500         6
  65.000        12
  65.500         9
  66.000         4
  66.500        10
  67.000        16
  67.500        19
  68.000        10
  68.500        82
  69.000        75
  69.500        12
  70.000        13
  70.500        17
  71.000         7
  71.500         2
  72.000        10
  72.500         7
  73.000        12
  73.500        12
  74.000        10
  74.500        15
  75.000        12
  75.500        33
  76.000       342
  76.500        19
  77.000        12
  77.500        12
  78.000        24
  78.500        22
  79.000        10
  79.500        12
  80.000        12
  80.500         9
  81.000         9
  81.500        12
  82.000         7
  82.500         9
  83.000        10
  83.500        16
  84.000        10
  84.500        16
  85.000         4
  85.500        12
  86.000        15
  86.500        12
  87.000        70
  87.500       475
  88.000        37
  88.500        16
  89.000        19
  89.500        12
  90.000        13
  90.500        10
  91.000        10
  91.500        10
  92.000        10
  92.500        20
  93.000        12
  93.500        21
  94.000        59
  94.500       299
  95.000        17
  95.500        12
  96.000        10
  96.500        10
  97.000        10
  97.500        12
  98.000         9
  98.500        12
  99.000         7
  99.500         7
 100.000         4
 100.500        12
 101.000         9
 101.500         9
 102.000        12
 102.500        13
 103.000        12
 103.500        10
 104.000         7
 104.500         4
 105.000        17
 105.500        38
 106.000       112
 106.500        26
 107.000        16
 107.500         7
 108.000        12
 108.500        15
 109.000        12
 109.500        20
 110.000        16
 110.500        13
 111.000        16
 111.500        12
 112.000        22
 112.500        29
 113.000       416
 113.500       282
 114.000        21
 114.500         9
 115.000        17
 115.500        56
 116.000        33
 116.500        12
 117.000        15
 117.500        16
 118.000        15
 118.500        12
 119.000        10
 119.500         9
 120.000        12
 120.500        17
 121.000        12
 121.500        21
 122.000         7
 122.500        15
 123.000        16
 123.500        12
 124.000        16
 124.500        16
 125.000        21
 125.500        26
 126.000       171
 126.500       121
 127.000        72
 127.500        26
 128.000        17
 128.500        16
 129.000        20
 129.500        12
 130.000        10
 130.500        13
 131.000        22
 131.500        13
 132.000        16
 132.500        22
 133.000        19
 133.500        13
 134.000        21
 134.500        16
 135.000        82
 135.500        67
 136.000       118
 136.500        30
 137.000        19
 137.500        17
 138.000        23
 138.500        62
 139.000        29
 139.500        26
 140.000        21
 140.500        13
 141.000        25
 141.500        25
 142.000        17
 142.500        15
 143.000        13
 143.500        16
 144.000        16
 144.500        13
 145.000        19
 145.500        13
 146.000        23
 146.500        12
 147.000        10
 147.500        12
 148.000        10
 148.500         6
 149.000        19
 149.500        15
 150.000        23