File: data/XRD/GRANODIO.PRN
   5.000       166
   5.500       146
   6.000       129
   6.500       123
   7.000       136
   7.500       129
   8.000       171
   8.500      1049
   9.000       524
   9.500       104
  10.000       110
  10.500       492
  11.000        77
  11.500        70
  12.000        77
  12.500       420
  13.000        72
  13.500        96
  14.000        82
  14.500        56
  15.000        94
  15.500        62
  16.000        57
  16.500        56
  17.000        59
  17.500        84
  18.000        53
  18.500        50
  19.000        84
  19.500        56
  20.000        56
  20.500        75
  21.000       416
  21.500        75
  22.000       571
  22.500       125
  23.000       207
  23.500       327
  24.000       285
  24.500       196
  25.000       118
  25.500       268
  26.000       179
  26.500      4583
  27.000       432
  27.500      1474
  28.000      2851
  28.500       252
  29.000        77
  29.500       148
  30.000       201
  30.500       457
  31.000       100
  31.500       320
  32.000       104
  32.500        82
  33.000        88
  33.500        47
  34.000       187
  34.500       110
  35.000       144
  35.500       299
  36.000       196
  36.500       353
  37.000       127
  37.500        96
  38.000        50
  38.500        79
  39.000        57
  39.500       542
  40.000        67
  40.500        72
  41.000        70
  41.500       116
  42.000        90
  42.500       384
  43.000       125
  43.500        37
  44.000        57
  44.500        53
  45.000       488
  45.500       121
  46.000       116
  46.500        53
  47.000        75
  47.500       118
  48.000        56
  48.500        96
  49.000        96
  49.500        84
  50.000       282
  50.500       141
  51.000       104
  51.500       182
  52.000        47
  52.500       118
  53.000        90
  53.500        70
  54.000        88
  54.500       193
  55.000       193
  55.500       114
  56.000        56
  56.500        59
  57.000        50
  57.500        79
  58.000        50
  58.500        92
  59.000        77
  59.500        92
  60.000       645
  60.500        96
  61.000        67
  61.500        72
  62.000       102
  62.500        70
  63.000        94
  63.500        79
  64.000       196
  64.500        98
  65.000       129
  65.500        90
  66.000        82
  66.500        96
  67.000        73
  67.500        88
  68.000       249
  68.500       424
  69.000        77
  69.500       104
  70.000       108
  70.500        57
  71.000        96
  71.500       114
  72.000        75
  72.500        60
  73.000        82
  73.500       153
  74.000        88
  74.500        88
  75.000        84
  75.500       136
  76.000        70
  76.500        54
  77.000        50
  77.500        59
  78.000        79
  78.500        84
  79.000        75
  79.500        77
  80.000       125
  80.500        65
  81.000        57
  81.500       225
  82.000        32
  82.500        64
  83.000        60
  83.500        59
  84.000        68
  84.500        65
  85.000        67
  85.500        56
  86.000        60
  86.500        47
  87.000        43
  87.500        54
  88.000        43
  88.500        49
  89.000        42
  89.500        47
  90.000        50
  90.500        56
  91.000        65
  91.500        34
  92.000        54
  92.500        72
  93.000        73
  93.500        40
  94.000        56
  94.500        62
  95.000       104
  95.500        53
  96.000        50
  96.500        54
  97.000        43
  97.500        32
  98.000        38
  98.500        47
  99.000        57
  99.500        54
 100.000        56
 100.500        32
 101.000        57
 101.500        46
 102.000        42
 102.500        53
 103.000        49
 103.500        50
 104.000        54
 104.500        65
 105.000        51
 105.500        43
 106.000        43
 106.500        53
 107.000        72
 107.500        43
 108.000        29
 108.500        37
 109.000        47
 109.500        38
 110.000        47
 110.500        49
 111.000        31
 111.500        38
 112.000        34
 112.500        37
 113.000        42
 113.500        34
 114.000        53
 114.500       163
 115.000        98
 115.500        54
 116.000        57
 116.500        34
 117.000        36
 117.500        38
 118.000        40
 118.500        47
 119.000        47
 119.500        27
 120.000        59
 120.500        51
 121.000        37
 121.500        32
 122.000        43
 122.500        67
 123.000        43
 123.500        29
 124.000        39
 124.500        39
 125.000        53
 125.500        38
 126.000        36
 126.500        33
 127.000        40
 127.500        56
 128.000        38
 128.500        36
 129.000        42
 129.500        39
 130.000        40
 130.500        44
 131.000        50
 131.500        50
 132.000        44
 132.500        67
 133.000        51
 133.500        60
 134.000        40
 134.500        51
 135.000        59
 135.500        47
 136.000        60
 136.500       116
 137.000        65
 137.500        59
 138.000        98
 138.500        59
 139.000        62
 139.500        64
 140.000        56
 140.500        53
 141.000        39
 141.500        43
 142.000        53
 142.500        38
 143.000        56
 143.500        75
 144.000        67
 144.500        65
 145.000        56
 145.500        43
 146.000        43
 146.500        62
 147.000        51
 147.500        77
 148.000        62
 148.500        43
 149.000        44
 149.500        38
 150.000        65