File: data/XRD/MAGNETIT.PRN
   5.000       166
   5.500       132
   6.000       114
   6.500       132
   7.000       104
   7.500       102
   8.000        98
   8.500        82
   9.000        79
   9.500        70
  10.000        73
  10.500        65
  11.000        67
  11.500        50
  12.000        57
  12.500        57
  13.000        60
  13.500        47
  14.000        42
  14.500        46
  15.000        43
  15.500        42
  16.000        40
  16.500        29
  17.000        34
  17.500        44
  18.000        47
  18.500        86
  19.000        32
  19.500        32
  20.000        30
  20.500        38
  21.000        32
  21.500        23
  22.000        27
  22.500        15
  23.000        22
  23.500        21
  24.000        23
  24.500        37
  25.000        22
  25.500        25
  26.000        27
  26.500        29
  27.000        16
  27.500        22
  28.000        13
  28.500        24
  29.000        21
  29.500        37
  30.000       524
  30.500        90
  31.000        32
  31.500        27
  32.000        23
  32.500        16
  33.000        21
  33.500        25
  34.000        25
  34.500        46
  35.000       182
  35.500      2430
  36.000       169
  36.500        50
  37.000       136
  37.500        43
  38.000        32
  38.500        24
  39.000        19
  39.500        22
  40.000        23
  40.500        24
  41.000        12
  41.500        20
  42.000        12
  42.500        56
  43.000       396
  43.500        90
  44.000        16
  44.500        16
  45.000        16
  45.500        12
  46.000        13
  46.500         4
  47.000        21
  47.500        12
  48.000         6
  48.500        12
  49.000        10
  49.500        12
  50.000        17
  50.500         7
  51.000        19
  51.500        10
  52.000        10
  52.500        21
  53.000        43
  53.500       201
  54.000        30
  54.500        24
  55.000        22
  55.500        17
  56.000        32
  56.500        77
  57.000       542
  57.500       104
  58.000        38
  58.500        23
  59.000        16
  59.500        17
  60.000        10
  60.500        15
  61.000        28
  61.500        29
  62.000       125
  62.500       533
  63.000       225
  63.500        57
  64.000        21
  64.500        10
  65.000        30
  65.500        19
  66.000        23
  66.500        23
  67.000        16
  67.500         7
  68.000        10
  68.500        12
  69.000        12
  69.500         9
  70.000        12
  70.500        22
  71.000        67
  71.500        17
  72.000        17
  72.500        10
  73.000        20
  73.500        39
  74.000       110
  74.500        49
  75.000        65
  75.500        32
  76.000        17
  76.500        19
  77.000         5
  77.500         9
  78.000        10
  78.500        24
  79.000        37
  79.500        22
  80.000        19
  80.500        20
  81.000         9
  81.500        13
  82.000        16
  82.500        20
  83.000        13
  83.500        10
  84.000        10
  84.500         6
  85.000         7
  85.500        12
  86.000        16
  86.500        30
  87.000        43
  87.500        33
  88.000        13
  88.500        28
  89.000        40
  89.500       110
  90.000       110
  90.500        43
  91.000        23
  91.500        20
  92.000        16
  92.500        12
  93.000        22
  93.500        22
  94.000        23
  94.500        56
  95.000        43
  95.500        27
  96.000        17
  96.500        19
  97.000        16
  97.500        12
  98.000        10
  98.500         5
  99.000        10
  99.500         6
 100.000         6
 100.500        10
 101.000         7
 101.500        13
 102.000        19
 102.500        32
 103.000        23
 103.500        22
 104.000        19
 104.500        30
 105.000        54
 105.500        65
 106.000        44
 106.500        37
 107.000        16
 107.500        12
 108.000        25
 108.500        12
 109.000        10
 109.500        25
 110.000        25
 110.500        39
 111.000        36
 111.500        20
 112.000        10
 112.500         4
 113.000         9
 113.500        20
 114.000        13
 114.500         6
 115.000         4
 115.500        10
 116.000         5
 116.500        16
 117.000        15
 117.500        20
 118.000        10
 118.500        13
 119.000        12
 119.500        16
 120.000         7
 120.500        19
 121.000        21
 121.500        30
 122.000        40
 122.500        64
 123.000        39
 123.500        34
 124.000        19
 124.500        28
 125.000        21
 125.500        19
 126.000        13
 126.500        31
 127.000        26
 127.500        56
 128.000        98
 128.500        88
 129.000        70
 129.500        50
 130.000        26
 130.500        28
 131.000        16
 131.500        25
 132.000        12
 132.500        13
 133.000        16
 133.500        20
 134.000        21
 134.500        10
 135.000        20
 135.500        16
 136.000        16
 136.500        10
 137.000        15
 137.500        22
 138.000        21
 138.500        26
 139.000        38
 139.500        24
 140.000        17
 140.500        29
 141.000        22
 141.500        26
 142.000        42
 142.500        36
 143.000        49
 143.500        65
 144.000        57
 144.500        46
 145.000        56
 145.500        42
 146.000        21
 146.500        32
 147.000        31
 147.500        16
 148.000        21
 148.500        13
 149.000        12
 149.500        12
 150.000        12