File: data/XRD/MANNITOL.PRN
  5.000 196
  5.320 187
  5.640 176
  5.960 158
  6.280 182
  6.600 163
  6.920 148
  7.240 141
  7.560 151
  7.880 139
  8.200 129
  8.520 125
  8.840 156
  9.160 148
  9.480 123
  9.800 187
 10.120 817
 10.440 11924
 10.760 176
 11.080 190
 11.400 795
 11.720 146
 12.040 132
 12.360 127
 12.680 136
 13.000 151
 13.320 144
 13.640 148
 13.960 174
 14.280 1552
 14.600 16770
 14.920 256
 15.240 144
 15.560 141
 15.880 136
 16.200 169
 16.520 380
 16.840 812
 17.160 187
 17.480 176
 17.800 222
 18.120 392
 18.440 3576
 18.760 32400
 19.080 1369
 19.400 282
 19.720 338
 20.040 388
 20.360 3260
 20.680 912
 21.000 9139
 21.320 515
 21.640 1909
 21.960 240
 22.280 292
 22.600 364
 22.920 1780
 23.240 21462
 23.560 1697
 23.880 372
 24.200 331
 24.520 1036
 24.840 357
 25.160 237
 25.480 412
 25.800 1840
 26.120 416
 26.440 510
 26.760 216
 27.080 228
 27.400 240
 27.720 416
 28.040 1892
 28.360 5595
 28.680 299
 29.000 600
 29.320 3994
 29.640 756
 29.960 268
 30.280 289
 30.600 368
 30.920 349
 31.240 1095
 31.560 2097
 31.880 973
 32.200 361
 32.520 906
 32.840 470
 33.160 1332
 33.480 5184
 33.800 858
 34.120 580
 34.440 595
 34.760 605
 35.080 292
 35.400 289
 35.720 620
 36.040 1135
 36.360 320
 36.680 278
 37.000 327
 37.320 408
 37.640 449
 37.960 524
 38.280 1391
 38.600 5535
 38.920 650
 39.240 331
 39.560 295
 39.880 400
 40.200 436
 40.520 275
 40.840 289
 41.160 327
 41.480 484
 41.800 556
 42.120 501
 42.440 453
 42.760 1128
 43.080 515
 43.400 876
 43.720 1592
 44.040 8100
 44.360 590
 44.680 449
 45.000 384
 45.320 441
 45.640 470
 45.960 396
 46.280 252
 46.600 309
 46.920 580
 47.240 795
 47.560 605
 47.880 1204
 48.200 392
 48.520 219
 48.840 213
 49.160 196
 49.480 234
 49.800 295
 50.120 327
 50.440 412
 50.760 338
 51.080 364
 51.400 259
 51.720 272
 52.040 289
 52.360 376
 52.680 278
 53.000 357
 53.320 306
 53.640 309
 53.960 357
 54.280 372
 54.600 510
 54.920 240
 55.240 292
 55.560 309
 55.880 237
 56.200 334
 56.520 259
 56.840 282
 57.160 201
 57.480 176
 57.800 243
 58.120 259
 58.440 436
 58.760 445
 59.080 240
 59.400 309
 59.720 225
 60.040 219
 60.360 265
 60.680 313
 61.000 334
 61.320 252
 61.640 169
 61.960 196
 62.280 222
 62.600 234
 62.920 285
 63.240 237
 63.560 353
 63.880 331
 64.200 222
 64.520 196
 64.840 179
 65.160 278
 65.480 372
 65.800 256
 66.120 466
 66.440 384
 66.760 272
 67.080 201
 67.400 179
 67.720 196
 68.040 213
 68.360 196
 68.680 231
 69.000 282
 69.320 256
 69.640 225
 69.960 187
 70.280 231
 70.600 306
 70.920 349
 71.240 187
 71.560 222
 71.880 174
 72.200 207
 72.520 259
 72.840 201
 73.160 182
 73.480 275
 73.800 256
 74.120 182
 74.440 182
 74.760 176
 75.080 216
 75.400 201
 75.720 219
 76.040 196
 76.360 210
 76.680 204
 77.000 231
 77.320 213
 77.640 207
 77.960 201
 78.280 213
 78.600 169
 78.920 169
 79.240 225
 79.560 278
 79.880 265
 80.200 182
 80.520 187
 80.840 207
 81.160 139
 81.480 184
 81.800 161
 82.120 193
 82.440 222
 82.760 184
 83.080 210
 83.400 219
 83.720 171
 84.040 210
 84.360 204
 84.680 204
 85.000 176
 85.320 182
 85.640 182
 85.960 169
 86.280 176
 86.600 161
 86.920 196
 87.240 179
 87.560 176
 87.880 156
 88.200 196
 88.520 182
 88.840 166
 89.160 182
 89.480 179
 89.800 216
 90.120 166
 90.440 182
 90.760 174
 91.080 139
 91.400 136
 91.720 151
 92.040 151
 92.360 136
 92.680 139
 93.000 141
 93.320 156
 93.640 176
 93.960 176
 94.280 201
 94.600 158
 94.920 174
 95.240 179
 95.560 153
 95.880 151
 96.200 190
 96.520 148
 96.840 174
 97.160 121
 97.480 136
 97.800 146
 98.120 127
 98.440 141
 98.760 139
 99.080 139
 99.400 139
 99.720 110
100.000 148