File: data/XRD/NIZATIDI.PRN
  5.000 179
  5.320 163
  5.640 148
  5.960 158
  6.280 219
  6.600 650
  6.920 6068
  7.240 141
  7.560 129
  7.880 121
  8.200 110
  8.520 110
  8.840 127
  9.160 112
  9.480 100
  9.800 108
 10.120 110
 10.440 231
 10.760 102
 11.080 92
 11.400 118
 11.720 104
 12.040 153
 12.360 104
 12.680 106
 13.000 132
 13.320 108
 13.640 198
 13.960 466
 14.280 4356
 14.600 778
 14.920 156
 15.240 169
 15.560 129
 15.880 213
 16.200 484
 16.520 213
 16.840 605
 17.160 590
 17.480 139
 17.800 141
 18.120 234
 18.440 121
 18.760 141
 19.080 179
 19.400 1376
 19.720 676
 20.040 2361
 20.360 538
 20.680 198
 21.000 707
 21.320 345
 21.640 179
 21.960 285
 22.280 595
 22.600 408
 22.920 1218
 23.240 2190
 23.560 338
 23.880 625
 24.200 918
 24.520 1332
 24.840 259
 25.160 396
 25.480 299
 25.800 292
 26.120 835
 26.440 5416
 26.760 846
 27.080 292
 27.400 718
 27.720 696
 28.040 324
 28.360 228
 28.680 231
 29.000 466
 29.320 219
 29.640 1324
 29.960 492
 30.280 207
 30.600 342
 30.920 630
 31.240 174
 31.560 228
 31.880 252
 32.200 184
 32.520 174
 32.840 156
 33.160 289
 33.480 268
 33.800 282
 34.120 231
 34.440 275
 34.760 169
 35.080 240
 35.400 313
 35.720 256
 36.040 316
 36.360 184
 36.680 361
 37.000 262
 37.320 156
 37.640 210
 37.960 187
 38.280 282
 38.600 364
 38.920 349
 39.240 198
 39.560 299
 39.880 240
 40.200 306
 40.520 292
 40.840 272
 41.160 228
 41.480 174
 41.800 169
 42.120 222
 42.440 182
 42.760 174
 43.080 213
 43.400 187
 43.720 388
 44.040 353
 44.360 353
 44.680 193
 45.000 179
 45.320 201
 45.640 166
 45.960 163
 46.280 182
 46.600 207
 46.920 262
 47.240 342
 47.560 207
 47.880 225
 48.200 148
 48.520 121
 48.840 148
 49.160 163
 49.480 174
 49.800 285
 50.120 302
 50.440 158
 50.760 243
 51.080 219
 51.400 163
 51.720 141
 52.040 182
 52.360 158
 52.680 193
 53.000 196
 53.320 268
 53.640 193
 53.960 176
 54.280 169
 54.600 158
 54.920 174
 55.240 132
 55.560 169
 55.880 153
 56.200 158
 56.520 141
 56.840 127
 57.160 132
 57.480 182
 57.800 174
 58.120 139
 58.440 144
 58.760 127
 59.080 158
 59.400 144
 59.720 146
 60.040 136
 60.360 146
 60.680 134
 61.000 141
 61.320 125
 61.640 129
 61.960 153
 62.280 129
 62.600 134
 62.920 121
 63.240 118
 63.560 116
 63.880 118
 64.200 112
 64.520 106
 64.840 158
 65.160 127
 65.480 139
 65.800 174
 66.120 136
 66.440 151
 66.760 118
 67.080 129
 67.400 118
 67.720 114
 68.040 127
 68.360 114
 68.680 110
 69.000 129
 69.320 134
 69.640 123
 69.960 144
 70.280 108
 70.600 112
 70.920 100
 71.240 114
 71.560 88
 71.880 125
 72.200 110
 72.520 116
 72.840 129
 73.160 129
 73.480 106
 73.800 90
 74.120 114
 74.440 116
 74.760 108
 75.080 116
 75.400 104
 75.720 104
 76.040 121
 76.360 118
 76.680 100
 77.000 98
 77.320 121
 77.640 100
 77.960 98
 78.280 100
 78.600 112
 78.920 116
 79.240 121
 79.560 106
 79.880 100
 80.200 86
 80.520 84
 80.840 108
 81.160 102
 81.480 102
 81.800 110
 82.120 106
 82.440 121
 82.760 90
 83.080 110
 83.400 94
 83.720 104
 84.040 98
 84.360 106
 84.680 94
 85.000 96
 85.320 94
 85.640 84
 85.960 88
 86.280 96
 86.600 86
 86.920 90
 87.240 90
 87.560 77
 87.880 104
 88.200 82
 88.520 92
 88.840 90
 89.160 96
 89.480 86
 89.800 82
 90.120 88
 90.440 62
 90.760 73
 91.080 94
 91.400 75
 91.720 77
 92.040 90
 92.360 68
 92.680 79
 93.000 84
 93.320 90
 93.640 84
 93.960 75
 94.280 94
 94.600 59
 94.920 82
 95.240 70
 95.560 92
 95.880 77
 96.200 79
 96.520 90
 96.840 79
 97.160 79
 97.480 92
 97.800 75
 98.120 73
 98.440 73
 98.760 90
 99.080 72
 99.400 94
 99.720 81
100.000 96