File: data/XRD/PHARM1GR.PRN
  5.000 210
  5.320 193
  5.640 196
  5.960 193
  6.280 204
  6.600 285
  6.920 918
  7.240 479
  7.560 2016
  7.880 40280
  8.200 1075
  8.520 179
  8.840 158
  9.160 139
  9.480 127
  9.800 118
 10.120 265
 10.440 3192
 10.760 139
 11.080 169
 11.400 515
 11.720 1600
 12.040 174
 12.360 193
 12.680 795
 13.000 973
 13.320 184
 13.640 144
 13.960 237
 14.280 1421
 14.600 6037
 14.920 196
 15.240 306
 15.560 600
 15.880 3306
 16.200 696
 16.520 384
 16.840 756
 17.160 259
 17.480 216
 17.800 1115
 18.120 533
 18.440 1135
 18.760 16384
 19.080 1024
 19.400 1332
 19.720 645
 20.040 812
 20.360 2143
 20.680 620
 21.000 3576
 21.320 466
 21.640 1428
 21.960 998
 22.280 396
 22.600 1544
 22.920 829
 23.240 4489
 23.560 1056
 23.880 778
 24.200 1075
 24.520 1108
 24.840 942
 25.160 1369
 25.480 349
 25.800 973
 26.120 620
 26.440 2313
 26.760 561
 27.080 441
 27.400 600
 27.720 501
 28.040 739
 28.360 1459
 28.680 457
 29.000 380
 29.320 1962
 29.640 510
 29.960 380
 30.280 302
 30.600 479
 30.920 918
 31.240 750
 31.560 979
 31.880 1413
 32.200 13971
 32.520 1747
 32.840 571
 33.160 936
 33.480 2450
 33.800 645
 34.120 492
 34.440 420
 34.760 542
 35.080 416
 35.400 552
 35.720 571
 36.040 948
 36.360 327
 36.680 501
 37.000 470
 37.320 630
 37.640 345
 37.960 470
 38.280 1024
 38.600 2460
 38.920 561
 39.240 449
 39.560 515
 39.880 784
 40.200 681
 40.520 973
 40.840 2025
 41.160 400
 41.480 475
 41.800 600
 42.120 400
 42.440 316
 42.760 492
 43.080 345
 43.400 506
 43.720 620
 44.040 2756
 44.360 376
 44.680 327
 45.000 338
 45.320 327
 45.640 361
 45.960 420
 46.280 289
 46.600 357
 46.920 470
 47.240 501
 47.560 416
 47.880 519
 48.200 552
 48.520 292
 48.840 252
 49.160 388
 49.480 376
 49.800 334
 50.120 345
 50.440 357
 50.760 357
 51.080 292
 51.400 278
 51.720 256
 52.040 428
 52.360 275
 52.680 368
 53.000 416
 53.320 275
 53.640 295
 53.960 615
 54.280 345
 54.600 432
 54.920 327
 55.240 295
 55.560 275
 55.880 256
 56.200 380
 56.520 256
 56.840 246
 57.160 249
 57.480 237
 57.800 234
 58.120 262
 58.440 388
 58.760 272
 59.080 201
 59.400 228
 59.720 216
 60.040 198
 60.360 231
 60.680 292
 61.000 309
 61.320 295
 61.640 237
 61.960 213
 62.280 240
 62.600 237
 62.920 262
 63.240 207
 63.560 299
 63.880 262
 64.200 231
 64.520 187
 64.840 207
 65.160 275
 65.480 306
 65.800 278
 66.120 364
 66.440 388
 66.760 225
 67.080 179
 67.400 179
 67.720 234
 68.040 156
 68.360 187
 68.680 161
 69.000 213
 69.320 207
 69.640 187
 69.960 198
 70.280 201
 70.600 246
 70.920 246
 71.240 184
 71.560 169
 71.880 190
 72.200 231
 72.520 198
 72.840 174
 73.160 187
 73.480 213
 73.800 198
 74.120 176
 74.440 198
 74.760 198
 75.080 219
 75.400 207
 75.720 184
 76.040 182
 76.360 182
 76.680 210
 77.000 207
 77.320 179
 77.640 222
 77.960 228
 78.280 187
 78.600 174
 78.920 184
 79.240 213
 79.560 262
 79.880 225
 80.200 187
 80.520 252
 80.840 148
 81.160 153
 81.480 136
 81.800 176
 82.120 169
 82.440 193
 82.760 216
 83.080 182
 83.400 182
 83.720 174
 84.040 184
 84.360 153
 84.680 174
 85.000 153
 85.320 193
 85.640 174
 85.960 201
 86.280 161
 86.600 146
 86.920 179
 87.240 151
 87.560 174
 87.880 161
 88.200 161
 88.520 144
 88.840 144
 89.160 146
 89.480 169
 89.800 148
 90.120 129
 90.440 153
 90.760 151
 91.080 153
 91.400 156
 91.720 144
 92.040 144
 92.360 141
 92.680 134
 93.000 148
 93.320 146
 93.640 174
 93.960 169
 94.280 153
 94.600 153
 94.920 144
 95.240 146
 95.560 129
 95.880 148
 96.200 163
 96.520 156
 96.840 153
 97.160 123
 97.480 129
 97.800 161
 98.120 146
 98.440 136
 98.760 123
 99.080 148
 99.400 136
 99.720 121
100.000 141