File: data/XRD/PHARM2GR.PRN
  5.000 234
  5.320 228
  5.640 231
  5.960 252
  6.280 249
  6.600 376
  6.920 1156
  7.240 547
  7.560 1892
  7.880 23932
  8.200 985
  8.520 265
  8.840 252
  9.160 246
  9.480 272
  9.800 292
 10.120 313
 10.440 2401
 10.760 278
 11.080 331
 11.400 492
 11.720 870
 12.040 327
 12.360 364
 12.680 620
 13.000 547
 13.320 408
 13.640 412
 13.960 510
 14.280 1755
 14.600 3025
 14.920 519
 15.240 605
 15.560 655
 15.880 1927
 16.200 930
 16.520 718
 16.840 1095
 17.160 645
 17.480 640
 17.800 1497
 18.120 817
 18.440 948
 18.760 6789
 19.080 1135
 19.400 1232
 19.720 985
 20.040 1232
 20.360 1849
 20.680 846
 21.000 1971
 21.320 784
 21.640 1162
 21.960 734
 22.280 778
 22.600 635
 22.920 1128
 23.240 3091
 23.560 1128
 23.880 1043
 24.200 1361
 24.520 1122
 24.840 961
 25.160 1544
 25.480 497
 25.800 985
 26.120 789
 26.440 1489
 26.760 812
 27.080 547
 27.400 655
 27.720 645
 28.040 605
 28.360 900
 28.680 515
 29.000 432
 29.320 1197
 29.640 605
 29.960 529
 30.280 497
 30.600 492
 30.920 676
 31.240 542
 31.560 600
 31.880 936
 32.200 4556
 32.520 1361
 32.840 556
 33.160 912
 33.480 1989
 33.800 650
 34.120 506
 34.440 510
 34.760 524
 35.080 515
 35.400 585
 35.720 547
 36.040 789
 36.360 542
 36.680 542
 37.000 571
 37.320 556
 37.640 462
 37.960 475
 38.280 1017
 38.600 1156
 38.920 529
 39.240 470
 39.560 590
 39.880 529
 40.200 625
 40.520 864
 40.840 1681
 41.160 600
 41.480 475
 41.800 484
 42.120 449
 42.440 384
 42.760 436
 43.080 368
 43.400 475
 43.720 660
 44.040 1102
 44.360 408
 44.680 392
 45.000 331
 45.320 361
 45.640 388
 45.960 428
 46.280 376
 46.600 349
 46.920 392
 47.240 492
 47.560 432
 47.880 497
 48.200 338
 48.520 331
 48.840 349
 49.160 353
 49.480 384
 49.800 364
 50.120 353
 50.440 345
 50.760 396
 51.080 278
 51.400 289
 51.720 289
 52.040 420
 52.360 302
 52.680 345
 53.000 345
 53.320 320
 53.640 306
 53.960 424
 54.280 324
 54.600 408
 54.920 302
 55.240 275
 55.560 285
 55.880 265
 56.200 259
 56.520 265
 56.840 262
 57.160 268
 57.480 246
 57.800 231
 58.120 282
 58.440 268
 58.760 262
 59.080 249
 59.400 249
 59.720 228
 60.040 201
 60.360 216
 60.680 231
 61.000 228
 61.320 272
 61.640 225
 61.960 225
 62.280 207
 62.600 196
 62.920 246
 63.240 198
 63.560 327
 63.880 249
 64.200 193
 64.520 198
 64.840 210
 65.160 240
 65.480 285
 65.800 243
 66.120 272
 66.440 256
 66.760 237
 67.080 182
 67.400 184
 67.720 222
 68.040 174
 68.360 198
 68.680 198
 69.000 182
 69.320 222
 69.640 207
 69.960 196
 70.280 184
 70.600 216
 70.920 231
 71.240 207
 71.560 201
 71.880 163
 72.200 184
 72.520 210
 72.840 187
 73.160 187
 73.480 225
 73.800 198
 74.120 182
 74.440 182
 74.760 196
 75.080 207
 75.400 198
 75.720 204
 76.040 196
 76.360 184
 76.680 174
 77.000 196
 77.320 187
 77.640 207
 77.960 219
 78.280 201
 78.600 184
 78.920 163
 79.240 193
 79.560 179
 79.880 179
 80.200 201
 80.520 210
 80.840 158
 81.160 187
 81.480 148
 81.800 146
 82.120 163
 82.440 204
 82.760 193
 83.080 161
 83.400 176
 83.720 169
 84.040 158
 84.360 166
 84.680 201
 85.000 166
 85.320 179
 85.640 171
 85.960 158
 86.280 179
 86.600 169
 86.920 148
 87.240 176
 87.560 153
 87.880 161
 88.200 153
 88.520 163
 88.840 148
 89.160 166
 89.480 174
 89.800 219
 90.120 187
 90.440 153
 90.760 148
 91.080 129
 91.400 132
 91.720 176
 92.040 144
 92.360 129
 92.680 166
 93.000 161
 93.320 158
 93.640 153
 93.960 158
 94.280 151
 94.600 146
 94.920 163
 95.240 139
 95.560 153
 95.880 132
 96.200 148
 96.520 141
 96.840 148
 97.160 116
 97.480 125
 97.800 144
 98.120 132
 98.440 116
 98.760 134
 99.080 121
 99.400 123
 99.720 110
100.000 116