File: data/XRD/SILICA.PRN
   5.000       912
   5.500       767
   6.000       580
   6.500       576
   7.000       475
   7.500       416
   8.000       349
   8.500       327
   9.000       338
   9.500       302
  10.000       285
  10.500       243
  11.000       256
  11.500       240
  12.000       252
  12.500       240
  13.000       213
  13.500       234
  14.000       268
  14.500       268
  15.000       272
  15.500       320
  16.000       299
  16.500       327
  17.000       380
  17.500       396
  18.000       445
  18.500       488
  19.000       600
  19.500       707
  20.000       756
  20.500       864
  21.000       882
  21.500       852
  22.000       912
  22.500       924
  23.000       876
  23.500       882
  24.000       729
  24.500       756
  25.000       660
  25.500       620
  26.000       552
  26.500       547
  27.000       479
  27.500       428
  28.000       412
  28.500       392
  29.000       357
  29.500       313
  30.000       295
  30.500       262
  31.000       292
  31.500       272
  32.000       275
  32.500       268
  33.000       256
  33.500       219
  34.000       216
  34.500       219
  35.000       222
  35.500       216
  36.000       171
  36.500       193
  37.000       198
  37.500       176
  38.000       193
  38.500       184
  39.000       184
  39.500       193
  40.000       153
  40.500       153
  41.000       148
  41.500       136
  42.000       156
  42.500       158
  43.000       148
  43.500       141
  44.000       174
  44.500       179
  45.000       139
  45.500       158
  46.000       174
  46.500       179
  47.000       156
  47.500       176
  48.000       153
  48.500       146
  49.000       158
  49.500       166
  50.000       141
  50.500       163
  51.000       153
  51.500       161
  52.000       132
  52.500       146
  53.000       158
  53.500       136
  54.000       136
  54.500       158
  55.000       129
  55.500       139
  56.000       132
  56.500       129
  57.000       141
  57.500       141
  58.000       156
  58.500       144
  59.000       134
  59.500       148
  60.000       129
  60.500       141
  61.000       134
  61.500       144
  62.000       158
  62.500       132
  63.000       166
  63.500       129
  64.000       161
  64.500       125
  65.000       156
  65.500       129
  66.000       144
  66.500       151
  67.000       132
  67.500       134
  68.000       141
  68.500       114
  69.000       129
  69.500       148
  70.000       129
  70.500       116
  71.000       121
  71.500       123
  72.000       136
  72.500       116
  73.000       139
  73.500       134
  74.000       112
  74.500       139
  75.000       144
  75.500       125
  76.000       125
  76.500       141
  77.000       134
  77.500       129
  78.000       125
  78.500       146
  79.000       116
  79.500       125
  80.000       118
  80.500       127
  81.000       112
  81.500       106
  82.000       114
  82.500       129
  83.000       112
  83.500        90
  84.000        98
  84.500        79
  85.000        77
  85.500        92
  86.000        77
  86.500        84
  87.000        84
  87.500        68
  88.000        59
  88.500        70
  89.000        60
  89.500        70
  90.000        62
  90.500        65
  91.000        62
  91.500        51
  92.000        73
  92.500        60
  93.000        68
  93.500        60
  94.000        82
  94.500        56
  95.000        64
  95.500        54
  96.000        56
  96.500        64
  97.000        67
  97.500        70
  98.000        70
  98.500        70
  99.000        62
  99.500        70
 100.000        57
 100.500        75
 101.000        59
 101.500        77
 102.000        67
 102.500        72
 103.000        60
 103.500        65
 104.000        72
 104.500        75
 105.000        79
 105.500        67
 106.000        79
 106.500        64
 107.000        62
 107.500        57
 108.000        75
 108.500        53
 109.000        53
 109.500        68
 110.000        70
 110.500        56
 111.000        62
 111.500        62
 112.000        68
 112.500        62
 113.000        65
 113.500        73
 114.000        79
 114.500        59
 115.000        68
 115.500        65
 116.000        53
 116.500        57
 117.000        59
 117.500        70
 118.000        59
 118.500        51
 119.000        62
 119.500        50
 120.000        49
 120.500        56
 121.000        47
 121.500        56
 122.000        54
 122.500        53
 123.000        49
 123.500        62
 124.000        59
 124.500        50
 125.000        56
 125.500        67
 126.000        56
 126.500        62
 127.000        57
 127.500        47
 128.000        67
 128.500        56
 129.000        67
 129.500        59
 130.000        60
 130.500        57
 131.000        68
 131.500        65
 132.000        50
 132.500        54
 133.000        53
 133.500        59
 134.000        51
 134.500        65
 135.000        59
 135.500        59
 136.000        49
 136.500        51
 137.000        65
 137.500        60
 138.000        75
 138.500        68
 139.000        94
 139.500        70
 140.000        92
 140.500        59
 141.000        65
 141.500        70
 142.000        77
 142.500        72
 143.000        64
 143.500        62
 144.000        67
 144.500        68
 145.000        77
 145.500        82
 146.000        79
 146.500        75
 147.000        84
 147.500        65
 148.000        81
 148.500        84
 149.000        79
 149.500        86
 150.000        81