File: data/XRD/STARCH.PRN
  5.000 392
  5.320 432
  5.640 416
  5.960 412
  6.280 441
  6.600 475
  6.920 488
  7.240 576
  7.560 595
  7.880 566
  8.200 571
  8.520 635
  8.840 620
  9.160 665
  9.480 676
  9.800 829
 10.120 761
 10.440 817
 10.760 888
 11.080 912
 11.400 1043
 11.720 1011
 12.040 1102
 12.360 1225
 12.680 1274
 13.000 1310
 13.320 1288
 13.640 1354
 13.960 1361
 14.280 1444
 14.600 1497
 14.920 1713
 15.240 1747
 15.560 1747
 15.880 1730
 16.200 1713
 16.520 1857
 16.840 1989
 17.160 2116
 17.480 2016
 17.800 2016
 18.120 2061
 18.440 1971
 18.760 1849
 19.080 1840
 19.400 1806
 19.720 1927
 20.040 1831
 20.360 1722
 20.680 1722
 21.000 1705
 21.320 1616
 21.640 1600
 21.960 1600
 22.280 1624
 22.600 1722
 22.920 1664
 23.240 1552
 23.560 1421
 23.880 1376
 24.200 1339
 24.520 1253
 24.840 1162
 25.160 1069
 25.480 1043
 25.800 1108
 26.120 1069
 26.440 1024
 26.760 985
 27.080 973
 27.400 912
 27.720 954
 28.040 888
 28.360 961
 28.680 864
 29.000 870
 29.320 835
 29.640 864
 29.960 942
 30.280 894
 30.600 924
 30.920 930
 31.240 912
 31.560 870
 31.880 876
 32.200 870
 32.520 906
 32.840 936
 33.160 894
 33.480 864
 33.800 894
 34.120 992
 34.440 882
 34.760 888
 35.080 835
 35.400 888
 35.720 864
 36.040 823
 36.360 784
 36.680 806
 37.000 823
 37.320 806
 37.640 772
 37.960 784
 38.280 800
 38.600 772
 38.920 812
 39.240 756
 39.560 750
 39.880 696
 40.200 691
 40.520 707
 40.840 655
 41.160 696
 41.480 681
 41.800 625
 42.120 635
 42.440 670
 42.760 635
 43.080 635
 43.400 655
 43.720 650
 44.040 635
 44.360 650
 44.680 585
 45.000 600
 45.320 635
 45.640 576
 45.960 625
 46.280 585
 46.600 600
 46.920 590
 47.240 605
 47.560 552
 47.880 538
 48.200 566
 48.520 576
 48.840 497
 49.160 453
 49.480 515
 49.800 466
 50.120 492
 50.440 424
 50.760 470
 51.080 470
 51.400 436
 51.720 462
 52.040 420
 52.360 449
 52.680 392
 53.000 408
 53.320 388
 53.640 416
 53.960 327
 54.280 384
 54.600 349
 54.920 353
 55.240 316
 55.560 306
 55.880 306
 56.200 353
 56.520 302
 56.840 342
 57.160 313
 57.480 292
 57.800 306
 58.120 306
 58.440 278
 58.760 295
 59.080 313
 59.400 249
 59.720 289
 60.040 272
 60.360 262
 60.680 275
 61.000 246
 61.320 295
 61.640 240
 61.960 262
 62.280 265
 62.600 228
 62.920 231
 63.240 246
 63.560 225
 63.880 252
 64.200 246
 64.520 243
 64.840 225
 65.160 259
 65.480 243
 65.800 204
 66.120 240
 66.440 222
 66.760 246
 67.080 240
 67.400 225
 67.720 231
 68.040 240
 68.360 243
 68.680 210
 69.000 243
 69.320 231
 69.640 252
 69.960 222
 70.280 246
 70.600 237
 70.920 249
 71.240 243
 71.560 243
 71.880 249
 72.200 237
 72.520 240
 72.840 219
 73.160 228
 73.480 249
 73.800 216
 74.120 252
 74.440 240
 74.760 234
 75.080 219
 75.400 228
 75.720 246
 76.040 231
 76.360 234
 76.680 222
 77.000 216
 77.320 237
 77.640 198
 77.960 201
 78.280 225
 78.600 198
 78.920 252
 79.240 225
 79.560 231
 79.880 231
 80.200 228
 80.520 252
 80.840 213
 81.160 204
 81.480 213
 81.800 213
 82.120 213
 82.440 231
 82.760 213
 83.080 190
 83.400 210
 83.720 198
 84.040 193
 84.360 225
 84.680 228
 85.000 201
 85.320 210
 85.640 198
 85.960 176
 86.280 234
 86.600 210
 86.920 198
 87.240 187
 87.560 163
 87.880 176
 88.200 176
 88.520 176
 88.840 187
 89.160 193
 89.480 196
 89.800 193
 90.120 169
 90.440 169
 90.760 184
 91.080 179
 91.400 169
 91.720 161
 92.040 169
 92.360 179
 92.680 158
 93.000 163
 93.320 171
 93.640 163
 93.960 179
 94.280 174
 94.600 166
 94.920 176
 95.240 182
 95.560 169
 95.880 158
 96.200 151
 96.520 174
 96.840 153
 97.160 171
 97.480 156
 97.800 141
 98.120 158
 98.440 148
 98.760 123
 99.080 146
 99.400 136
 99.720 161
100.000 158