File: data/XRD/SUCROSE.PRN
  5.000 169
  5.320 158
  5.640 136
  5.960 169
  6.280 174
  6.600 132
  6.920 136
  7.240 132
  7.560 187
  7.880 275
  8.200 2550
  8.520 213
  8.840 132
  9.160 118
  9.480 112
  9.800 121
 10.120 127
 10.440 127
 10.760 127
 11.080 174
 11.400 900
 11.720 21432
 12.040 163
 12.360 272
 12.680 1324
 13.000 1406
 13.320 222
 13.640 118
 13.960 129
 14.280 121
 14.600 110
 14.920 129
 15.240 345
 15.560 3180
 15.880 243
 16.200 338
 16.520 1324
 16.840 817
 17.160 141
 17.480 166
 17.800 156
 18.120 841
 18.440 324
 18.760 3214
 19.080 295
 19.400 2025
 19.720 2520
 20.040 231
 20.360 1069
 20.680 2777
 21.000 256
 21.320 187
 21.640 196
 21.960 3124
 22.280 453
 22.600 6922
 22.920 240
 23.240 285
 23.560 1049
 23.880 216
 24.200 388
 24.520 1361
 24.840 4251
 25.160 2926
 25.480 306
 25.800 342
 26.120 372
 26.440 846
 26.760 265
 27.080 712
 27.400 707
 27.720 380
 28.040 201
 28.360 320
 28.680 561
 29.000 184
 29.320 179
 29.640 176
 29.960 210
 30.280 272
 30.600 1075
 30.920 1369
 31.240 1183
 31.560 357
 31.880 1421
 32.200 380
 32.520 357
 32.840 361
 33.160 278
 33.480 519
 33.800 436
 34.120 216
 34.440 285
 34.760 420
 35.080 252
 35.400 428
 35.720 3624
 36.040 457
 36.360 441
 36.680 552
 37.000 436
 37.320 510
 37.640 234
 37.960 470
 38.280 2070
 38.600 392
 38.920 756
 39.240 392
 39.560 449
 39.880 1361
 40.200 615
 40.520 571
 40.840 259
 41.160 368
 41.480 392
 41.800 231
 42.120 240
 42.440 262
 42.760 237
 43.080 295
 43.400 3806
 43.720 590
 44.040 876
 44.360 285
 44.680 278
 45.000 231
 45.320 331
 45.640 331
 45.960 488
 46.280 292
 46.600 342
 46.920 428
 47.240 524
 47.560 396
 47.880 718
 48.200 445
 48.520 441
 48.840 353
 49.160 327
 49.480 252
 49.800 327
 50.120 338
 50.440 561
 50.760 3422
 51.080 252
 51.400 219
 51.720 240
 52.040 313
 52.360 231
 52.680 275
 53.000 210
 53.320 262
 53.640 275
 53.960 457
 54.280 265
 54.600 256
 54.920 278
 55.240 416
 55.560 234
 55.880 349
 56.200 357
 56.520 349
 56.840 174
 57.160 228
 57.480 259
 57.800 272
 58.120 219
 58.440 249
 58.760 216
 59.080 282
 59.400 193
 59.720 182
 60.040 595
 60.360 334
 60.680 201
 61.000 193
 61.320 204
 61.640 243
 61.960 207
 62.280 196
 62.600 174
 62.920 216
 63.240 210
 63.560 324
 63.880 295
 64.200 231
 64.520 320
 64.840 331
 65.160 424
 65.480 240
 65.800 219
 66.120 316
 66.440 349
 66.760 334
 67.080 201
 67.400 179
 67.720 179
 68.040 166
 68.360 171
 68.680 196
 69.000 246
 69.320 538
 69.640 207
 69.960 240
 70.280 275
 70.600 204
 70.920 169
 71.240 302
 71.560 196
 71.880 176
 72.200 190
 72.520 201
 72.840 246
 73.160 228
 73.480 196
 73.800 179
 74.120 342
 74.440 246
 74.760 198
 75.080 204
 75.400 240
 75.720 187
 76.040 225
 76.360 213
 76.680 331
 77.000 190
 77.320 216
 77.640 207
 77.960 219
 78.280 174
 78.600 316
 78.920 234
 79.240 196
 79.560 228
 79.880 176
 80.200 166
 80.520 196
 80.840 228
 81.160 193
 81.480 204
 81.800 196
 82.120 169
 82.440 184
 82.760 219
 83.080 193
 83.400 216
 83.720 161
 84.040 136
 84.360 158
 84.680 158
 85.000 144
 85.320 116
 85.640 182
 85.960 171
 86.280 275
 86.600 174
 86.920 207
 87.240 615
 87.560 342
 87.880 163
 88.200 141
 88.520 163
 88.840 207
 89.160 174
 89.480 158
 89.800 243
 90.120 234
 90.440 166
 90.760 222
 91.080 156
 91.400 187
 91.720 198
 92.040 153
 92.360 169
 92.680 158
 93.000 174
 93.320 187
 93.640 146
 93.960 201
 94.280 176
 94.600 139
 94.920 148
 95.240 171
 95.560 156
 95.880 148
 96.200 201
 96.520 169
 96.840 153
 97.160 134
 97.480 174
 97.800 156
 98.120 163
 98.440 139
 98.760 153
 99.080 156
 99.400 141
 99.720 141
100.000 139