File: data/XRD/VALINE.PRN
  5.000 252
  5.320 219
  5.640 225
  5.960 231
  6.280 225
  6.600 231
  6.920 361
  7.240 2088
  7.560 11513
  7.880 154527
  8.200 29241
  8.520 590
  8.840 234
  9.160 136
  9.480 148
  9.800 116
 10.120 136
 10.440 129
 10.760 114
 11.080 132
 11.400 123
 11.720 125
 12.040 141
 12.360 151
 12.680 134
 13.000 141
 13.320 129
 13.640 156
 13.960 146
 14.280 174
 14.600 190
 14.920 204
 15.240 237
 15.560 1043
 15.880 17503
 16.200 5867
 16.520 345
 16.840 210
 17.160 193
 17.480 338
 17.800 2724
 18.120 475
 18.440 640
 18.760 225
 19.080 817
 19.400 309
 19.720 275
 20.040 184
 20.360 163
 20.680 174
 21.000 222
 21.320 492
 21.640 2550
 21.960 906
 22.280 187
 22.600 182
 22.920 198
 23.240 249
 23.560 1024
 23.880 2683
 24.200 13782
 24.520 372
 24.840 246
 25.160 246
 25.480 320
 25.800 750
 26.120 1197
 26.440 412
 26.760 1043
 27.080 1918
 27.400 313
 27.720 309
 28.040 320
 28.360 302
 28.680 432
 29.000 441
 29.320 665
 29.640 524
 29.960 912
 30.280 1176
 30.600 552
 30.920 580
 31.240 823
 31.560 1459
 31.880 7056
 32.200 41820
 32.520 38848
 32.840 1971
 33.160 3249
 33.480 3733
 33.800 1346
 34.120 712
 34.440 665
 34.760 784
 35.080 1069
 35.400 812
 35.720 817
 36.040 942
 36.360 784
 36.680 718
 37.000 1369
 37.320 1030
 37.640 542
 37.960 620
 38.280 712
 38.600 696
 38.920 484
 39.240 533
 39.560 681
 39.880 615
 40.200 1376
 40.520 4610
 40.840 17768
 41.160 864
 41.480 542
 41.800 605
 42.120 501
 42.440 342
 42.760 256
 43.080 299
 43.400 285
 43.720 262
 44.040 349
 44.360 320
 44.680 324
 45.000 252
 45.320 278
 45.640 349
 45.960 392
 46.280 361
 46.600 412
 46.920 278
 47.240 240
 47.560 207
 47.880 268
 48.200 376
 48.520 428
 48.840 372
 49.160 620
 49.480 1197
 49.800 345
 50.120 282
 50.440 324
 50.760 289
 51.080 240
 51.400 268
 51.720 295
 52.040 313
 52.360 357
 52.680 691
 53.000 1043
 53.320 289
 53.640 285
 53.960 331
 54.280 272
 54.600 313
 54.920 428
 55.240 285
 55.560 345
 55.880 295
 56.200 306
 56.520 364
 56.840 571
 57.160 817
 57.480 376
 57.800 345
 58.120 515
 58.440 829
 58.760 338
 59.080 324
 59.400 324
 59.720 285
 60.040 262
 60.360 265
 60.680 313
 61.000 615
 61.320 979
 61.640 930
 61.960 345
 62.280 506
 62.600 272
 62.920 234
 63.240 225
 63.560 268
 63.880 213
 64.200 272
 64.520 252
 64.840 361
 65.160 384
 65.480 457
 65.800 707
 66.120 630
 66.440 372
 66.760 285
 67.080 331
 67.400 384
 67.720 936
 68.040 275
 68.360 231
 68.680 228
 69.000 213
 69.320 246
 69.640 240
 69.960 285
 70.280 252
 70.600 396
 70.920 320
 71.240 225
 71.560 243
 71.880 219
 72.200 187
 72.520 184
 72.840 210
 73.160 240
 73.480 231
 73.800 216
 74.120 228
 74.440 240
 74.760 295
 75.080 400
 75.400 384
 75.720 259
 76.040 278
 76.360 268
 76.680 187
 77.000 249
 77.320 204
 77.640 262
 77.960 262
 78.280 231
 78.600 198
 78.920 207
 79.240 196
 79.560 169
 79.880 240
 80.200 306
 80.520 262
 80.840 187
 81.160 210
 81.480 156
 81.800 174
 82.120 184
 82.440 184
 82.760 210
 83.080 187
 83.400 187
 83.720 158
 84.040 174
 84.360 161
 84.680 184
 85.000 252
 85.320 285
 85.640 268
 85.960 187
 86.280 201
 86.600 187
 86.920 196
 87.240 182
 87.560 187
 87.880 166
 88.200 219
 88.520 171
 88.840 196
 89.160 193
 89.480 184
 89.800 204
 90.120 184
 90.440 219
 90.760 289
 91.080 240
 91.400 196
 91.720 225
 92.040 190
 92.360 176
 92.680 182
 93.000 187
 93.320 176
 93.640 182
 93.960 182
 94.280 184
 94.600 182
 94.920 179
 95.240 182
 95.560 144
 95.880 166
 96.200 171
 96.520 184
 96.840 169
 97.160 156
 97.480 207
 97.800 198
 98.120 193
 98.440 184
 98.760 213
 99.080 169
 99.400 163
 99.720 153
100.000 176