File: data/XRD/ZINCITE.PRN
   5.000       222
   5.500       166
   6.000       141
   6.500       123
   7.000       108
   7.500       112
   8.000       104
   8.500        94
   9.000        98
   9.500        92
  10.000        92
  10.500        82
  11.000        67
  11.500        77
  12.000        65
  12.500        77
  13.000        77
  13.500        67
  14.000        59
  14.500        57
  15.000        54
  15.500        60
  16.000        53
  16.500        67
  17.000        59
  17.500        44
  18.000        50
  18.500        42
  19.000        54
  19.500        46
  20.000        53
  20.500        46
  21.000        46
  21.500        57
  22.000        46
  22.500        51
  23.000        47
  23.500        44
  24.000        65
  24.500        49
  25.000        42
  25.500        57
  26.000        38
  26.500        38
  27.000        47
  27.500        40
  28.000        47
  28.500        50
  29.000        44
  29.500        51
  30.000        72
  30.500        72
  31.000       136
  31.500       492
  32.000       894
  32.500       121
  33.000        98
  33.500        92
  34.000       193
  34.500      7761
  35.000       151
  35.500       163
  36.000       973
  36.500      1436
  37.000       148
  37.500        70
  38.000        67
  38.500        70
  39.000        56
  39.500        56
  40.000        46
  40.500        57
  41.000        56
  41.500        49
  42.000        49
  42.500        50
  43.000        40
  43.500        46
  44.000        38
  44.500        47
  45.000        43
  45.500        46
  46.000        72
  46.500        70
  47.000        96
  47.500      3226
  48.000       121
  48.500        53
  49.000        65
  49.500        50
  50.000        46
  50.500        38
  51.000        38
  51.500        47
  52.000        47
  52.500        49
  53.000        57
  53.500        64
  54.000        44
  54.500        72
  55.000        65
  55.500        96
  56.000        96
  56.500      1849
  57.000       246
  57.500        82
  58.000        77
  58.500        70
  59.000        75
  59.500        64
  60.000        70
  60.500        68
  61.000        68
  61.500        75
  62.000        86
  62.500       246
  63.000      2926
  63.500       127
  64.000        82
  64.500        75
  65.000        90
  65.500        79
  66.000        88
  66.500       488
  67.000       116
  67.500       134
  68.000      5140
  68.500       184
  69.000       823
  69.500       156
  70.000        90
  70.500        77
  71.000        53
  71.500        53
  72.000        56
  72.500       228
  73.000        44
  73.500        50
  74.000        42
  74.500        49
  75.000        47
  75.500        43
  76.000        59
  76.500        54
  77.000       795
  77.500        56
  78.000        44
  78.500        31
  79.000        50
  79.500        44
  80.000        46
  80.500        40
  81.000        50
  81.500       207
  82.000        50
  82.500        38
  83.000        39
  83.500        40
  84.000        51
  84.500        46
  85.000        38
  85.500        36
  86.000        56
  86.500        53
  87.000        59
  87.500        50
  88.000        43
  88.500        50
  89.000        59
  89.500       361
  90.000       475
  90.500        65
  91.000        67
  91.500        56
  92.000        53
  92.500        84
  93.000       182
  93.500        70
  94.000        57
  94.500        73
  95.000       129
  95.500       441
  96.000        88
  96.500        62
  97.000        57
  97.500        53
  98.000        88
  98.500       216
  99.000       506
  99.500        75
 100.000        54
 100.500        46
 101.000        54
 101.500        67
 102.000        64
 102.500        82
 103.000       645
 103.500       121
 104.000       259
 104.500       590
 105.000        53
 105.500        72
 106.000        54
 106.500        59
 107.000        70
 107.500       216
 108.000        77
 108.500        49
 109.000        56
 109.500        56
 110.000       100
 110.500       538
 111.000       146
 111.500        72
 112.000        67
 112.500        72
 113.000        57
 113.500        54
 114.000        56
 114.500        56
 115.000        65
 115.500        98
 116.000       161
 116.500       404
 117.000       196
 117.500        73
 118.000        70
 118.500        44
 119.000        44
 119.500        51
 120.000        65
 120.500        72
 121.000        94
 121.500       479
 122.000       289
 122.500        75
 123.000        49
 123.500        54
 124.000        51
 124.500        75
 125.000        77
 125.500        72
 126.000        60
 126.500        56
 127.000        53
 127.500        51
 128.000        49
 128.500        67
 129.000        67
 129.500        53
 130.000        56
 130.500        40
 131.000        47
 131.500        57
 132.000        49
 132.500        67
 133.000        73
 133.500        84
 134.000       882
 134.500       219
 135.000       100
 135.500        72
 136.000        64
 136.500       174
 137.000        88
 137.500       108
 138.000        67
 138.500       278
 139.000        90
 139.500       114
 140.000        77
 140.500        53
 141.000        62
 141.500        50
 142.000        65
 142.500        77
 143.000       660
 143.500       112
 144.000       216
 144.500        82
 145.000        73
 145.500        54
 146.000        70
 146.500        62
 147.000        72
 147.500        62
 148.000        70
 148.500        53
 149.000        59
 149.500        67
 150.000        65